AF3,F7,F3,FC5,T7,P7,O1,O2,P8,T8,FC6,F4,F8,AF4
-6233,-3523,5558,6830,-550,5128,1372,-5341,-4115,-5635,2711,224,-1102,-5862
-6233,-3523,5558,6830,-550,5128,1372,-5341,-4115,-5635,2711,224,-1102,-5862
-1393,-666,-682,208,-74,-443,-1162,-64,-870,-972,-422,-122,288,-508
-1395,-667,-683,208,-75,-443,-1163,-64,-871,-973,-422,-122,288,-509
-1418,-674,-693,217,-81,-446,-1174,-64,-881,-986,-422,-117,300,-520
-1453,-685,-707,231,-90,-450,-1190,-61,-895,-1005,-422,-109,317,-536
-1395,-665,-683,208,-73,-441,-1162,-64,-872,-974,-420,-123,288,-509
-1410,-674,-693,215,-81,-445,-1172,-65,-879,-982,-423,-118,298,-517
-1488,-697,-720,246,-101,-456,-1207,-58,-908,-1024,-422,-101,334,-552
-1056,-553,-533,74,23,-405,-1000,-75,-732,-785,-416,-196,115,-352
-324,-325,-234,-218,216,-334,-658,-118,-426,-374,-434,-356,-245,-10
-134,-269,-141,-294,255,-334,-571,-137,-319,-261,-460,-398,-342,88
-307,-324,-191,-226,203,-360,-660,-127,-385,-359,-460,-360,-264,12
-271,-311,-179,-247,235,-349,-637,-126,-393,-345,-450,-365,-281,27
-214,-291,-173,-275,269,-341,-601,-129,-368,-309,-456,-383,-306,56
-285,-316,-208,-241,238,-350,-637,-124,-380,-345,-458,-373,-272,25
-291,-331,-217,-227,229,-349,-642,-123,-399,-352,-451,-365,-272,18
-287,-339,-211,-214,242,-348,-627,-124,-422,-348,-461,-359,-279,22
-294,-339,-192,-205,233,-349,-625,-123,-422,-351,-485,-357,-266,21
-284,-338,-178,-209,220,-349,-628,-124,-423,-347,-487,-358,-257,24
-286,-343,-178,-207,237,-346,-628,-124,-443,-348,-470,-362,-261,20
-291,-350,-180,-223,252,-352,-623,-124,-430,-347,-462,-372,-263,20
-285,-355,-185,-248,233,-376,-625,-124,-395,-346,-469,-371,-247,22
-268,-350,-180,-241,215,-383,-643,-124,-393,-346,-480,-361,-250,23
-271,-333,-172,-232,232,-383,-648,-124,-417,-344,-484,-363,-269,24
-281,-328,-178,-244,255,-381,-630,-124,-418,-346,-484,-375,-267,24
-283,-339,-190,-227,256,-363,-617,-124,-408,-351,-485,-379,-262,23
-281,-335,-166,-229,248,-382,-640,-124,-400,-350,-464,-366,-259,23
-281,-332,-147,-262,246,-390,-660,-124,-400,-347,-443,-363,-258,24
-282,-357,-186,-224,254,-314,-643,-124,-407,-353,-472,-381,-268,24
-289,-378,-225,-176,261,-271,-626,-124,-387,-356,-492,-391,-273,21
-292,-380,-199,-215,260,-317,-635,-124,-360,-348,-469,-384,-269,19
-285,-397,-163,-249,259,-328,-636,-124,-366,-346,-471,-374,-273,20
-288,-413,-168,-239,270,-304,-610,-124,-386,-351,-483,-371,-270,22
-290,-407,-176,-252,285,-326,-596,-124,-399,-351,-448,-375,-252,23
-290,-407,-170,-274,290,-357,-601,-124,-404,-351,-431,-380,-258,22
-288,-403,-170,-284,289,-355,-602,-124,-405,-351,-450,-375,-280,23
-284,-381,-175,-284,286,-343,-606,-124,-406,-349,-443,-360,-272,24
-287,-363,-179,-279,279,-355,-604,-124,-401,-346,-429,-351,-256,22
-291,-355,-186,-283,258,-364,-601,-124,-381,-345,-430,-357,-265,22
-288,-343,-187,-286,230,-328,-618,-124,-368,-350,-427,-369,-268,27
-285,-324,-180,-268,191,-284,-643,-124,-370,-353,-434,-377,-262,16
-290,-298,-188,-236,118,-243,-648,-124,-380,-352,-456,-380,-269,7
-293,-261,-203,-221,30,-170,-653,-124,-379,-349,-476,-372,-276,19
-290,-236,-190,-214,-41,-97,-666,-124,-367,-360,-503,-358,-274,23
-289,-221,-181,-185,-98,-65,-663,-124,-358,-374,-544,-361,-272,16
-290,-203,-199,-150,-152,-32,-674,-124,-348,-367,-557,-367,-274,22
-289,-198,-209,-140,-192,11,-691,-124,-338,-352,-550,-362,-272,13
-288,-201,-209,-130,-220,15,-675,-124,-334,-349,-551,-361,-273,1
-291,-195,-206,-118,-237,-14,-661,-124,-329,-349,-551,-365,-273,9
-292,-199,-191,-141,-222,-28,-662,-124,-326,-348,-540,-365,-271,21
-291,-218,-173,-160,-195,-34,-641,-124,-346,-350,-537,-358,-271,16
-288,-224,-175,-134,-199,-45,-622,-124,-353,-352,-550,-351,-272,8
-289,-219,-184,-109,-221,-47,-642,-124,-337,-350,-551,-351,-272,7
-292,-219,-179,-120,-230,-48,-665,-124,-338,-346,-541,-353,-268,9
-280,-219,-181,-124,-229,-59,-661,-124,-341,-345,-542,-355,-269,14
-274,-231,-189,-114,-233,-62,-657,-124,-338,-348,-548,-356,-274,20
-284,-243,-185,-115,-239,-58,-658,-124,-337,-346,-546,-355,-272,21
-294,-240,-180,-110,-239,-59,-649,-124,-335,-342,-540,-354,-270,21
-291,-234,-184,-90,-232,-63,-632,-124,-347,-345,-543,-354,-272,22
-289,-239,-182,-88,-232,-71,-621,-124,-363,-347,-547,-354,-274,10
-291,-244,-173,-97,-234,-83,-632,-124,-355,-346,-550,-354,-274,6
-290,-228,-174,-97,-232,-87,-645,-124,-330,-347,-551,-353,-273,13
-289,-216,-187,-87,-231,-82,-636,-124,-332,-347,-536,-359,-274,7
-290,-232,-202,-84,-228,-83,-625,-124,-359,-349,-510,-366,-273,9
-292,-246,-202,-106,-219,-94,-628,-124,-360,-350,-503,-365,-273,21
-290,-240,-199,-123,-222,-94,-627,-124,-338,-345,-512,-362,-273,17
-289,-239,-203,-113,-234,-85,-635,-124,-326,-344,-499,-365,-273,21
-294,-243,-202,-121,-233,-97,-652,-124,-328,-345,-479,-362,-273,29
-294,-246,-207,-132,-227,-112,-638,-124,-331,-340,-480,-352,-274,13
-290,-238,-215,-104,-237,-101,-636,-124,-338,-332,-487,-349,-273,2
-289,-225,-212,-87,-245,-91,-662,-124,-333,-330,-487,-352,-273,9
-290,-225,-217,-106,-236,-103,-646,-124,-318,-335,-486,-354,-276,14
-289,-229,-225,-122,-226,-100,-618,-124,-330,-343,-482,-354,-276,20
-288,-220,-215,-132,-228,-89,-641,-124,-333,-348,-475,-352,-272,19
-289,-217,-200,-146,-236,-104,-641,-124,-309,-348,-484,-352,-271,12
-289,-233,-203,-156,-233,-117,-598,-124,-310,-348,-489,-355,-274,13
-289,-235,-219,-152,-227,-108,-588,-124,-325,-349,-486,-356,-274,19
-287,-224,-225,-153,-226,-106,-606,-124,-316,-347,-501,-355,-273,19
-289,-231,-207,-167,-226,-112,-605,-124,-319,-346,-518,-356,-274,21
-287,-246,-204,-168,-223,-105,-596,-124,-343,-347,-513,-357,-273,24
-285,-238,-231,-161,-222,-97,-599,-124,-330,-347,-510,-357,-275,22
-286,-229,-221,-181,-221,-110,-603,-124,-299,-346,-517,-356,-275,19
-284,-237,-174,-200,-226,-127,-588,-124,-299,-346,-516,-356,-270,22
-285,-235,-172,-182,-245,-118,-575,-124,-305,-344,-526,-357,-270,22
-291,-218,-204,-167,-258,-86,-592,-124,-304,-344,-546,-356,-275,19
-290,-201,-206,-165,-277,-60,-611,-124,-302,-346,-548,-353,-275,22
-289,-192,-208,-152,-301,-49,-604,-124,-294,-344,-541,-352,-275,22
-290,-195,-226,-149,-294,-46,-599,-124,-292,-341,-541,-354,-277,10
-282,-199,-219,-153,-281,-52,-601,-124,-306,-347,-542,-353,-278,8
-279,-193,-208,-147,-284,-58,-601,-124,-307,-350,-530,-352,-277,10
-291,-192,-218,-158,-277,-48,-599,-124,-294,-348,-529,-355,-277,10
-292,-200,-215,-173,-260,-41,-595,-124,-303,-347,-540,-358,-278,12
-288,-202,-201,-161,-262,-47,-597,-124,-315,-347,-541,-355,-276,16
-290,-192,-211,-145,-268,-49,-604,-124,-307,-348,-542,-354,-277,17
-290,-186,-237,-149,-262,-33,-605,-124,-296,-349,-549,-355,-281,19
-288,-192,-238,-149,-263,-23,-601,-124,-298,-348,-553,-355,-283,22
-289,-194,-212,-142,-279,-27,-605,-124,-316,-349,-550,-354,-282,18
-286,-194,-201,-147,-284,-24,-602,-124,-337,-351,-547,-355,-284,16
-288,-198,-217,-154,-267,-17,-580,-124,-345,-349,-555,-354,-281,22
-290,-194,-212,-152,-261,-19,-563,-124,-332,-349,-580,-353,-275,17
-288,-200,-197,-160,-263,-28,-566,-124,-317,-351,-577,-358,-275,4
-288,-219,-204,-178,-262,-30,-568,-124,-324,-349,-544,-362,-276,9
-289,-216,-199,-173,-274,-22,-558,-124,-344,-347,-545,-365,-274,22
-289,-206,-183,-155,-279,-31,-566,-124,-347,-346,-552,-372,-275,17
-289,-214,-194,-173,-245,-57,-591,-124,-332,-346,-519,-370,-276,16
-289,-233,-212,-205,-191,-88,-606,-124,-334,-345,-483,-367,-275,24
-286,-256,-215,-216,-136,-121,-608,-124,-337,-346,-465,-381,-278,21
-287,-280,-215,-239,-74,-164,-591,-124,-326,-348,-449,-384,-280,19
-292,-295,-208,-268,-22,-211,-559,-124,-340,-348,-433,-365,-276,24
-284,-306,-204,-264,-6,-242,-534,-124,-371,-347,-425,-364,-276,23
-276,-312,-206,-242,-24,-244,-535,-124,-370,-347,-421,-372,-281,21
-278,-307,-191,-242,-47,-234,-540,-124,-358,-348,-421,-365,-283,20
-287,-310,-174,-257,-34,-245,-531,-124,-367,-348,-422,-355,-279,21
-287,-318,-179,-260,-11,-260,-525,-124,-378,-348,-422,-364,-273,21
-280,-315,-191,-263,-26,-248,-533,-124,-369,-343,-420,-379,-277,20
-282,-308,-202,-278,-50,-233,-544,-124,-346,-341,-422,-378,-282,21
-286,-297,-203,-276,-47,-234,-542,-124,-342,-345,-442,-365,-279,23
-287,-291,-190,-252,-40,-235,-536,-124,-359,-349,-447,-356,-277,22
-286,-294,-195,-236,-47,-230,-537,-124,-368,-349,-438,-355,-277,18
-288,-287,-206,-240,-46,-224,-540,-124,-374,-347,-449,-351,-274,19
-288,-277,-190,-246,-42,-229,-536,-124,-392,-349,-458,-351,-277,21
-284,-283,-168,-245,-46,-248,-520,-124,-399,-349,-449,-357,-286,20
-286,-290,-168,-237,-45,-253,-508,-124,-401,-347,-454,-353,-280,20
-288,-282,-177,-238,-41,-243,-504,-124,-405,-346,-454,-352,-271,21
-287,-279,-176,-251,-41,-241,-511,-124,-397,-348,-428,-365,-274,20
-284,-281,-180,-263,-43,-236,-523,-124,-384,-349,-420,-373,-277,20
-287,-271,-201,-259,-43,-219,-535,-124,-380,-349,-428,-371,-272,21
-290,-254,-232,-245,-45,-209,-540,-124,-369,-348,-422,-376,-277,20
-288,-242,-244,-239,-55,-203,-541,-124,-357,-346,-422,-377,-282,20
-289,-247,-240,-237,-73,-202,-545,-124,-354,-347,-428,-366,-278,22
-290,-258,-241,-239,-85,-211,-544,-123,-353,-351,-406,-370,-280,24
-288,-257,-246,-241,-65,-214,-537,-124,-356,-351,-382,-383,-282,21
-287,-249,-243,-241,-48,-210,-534,-124,-355,-346,-388,-384,-280,20
-290,-248,-242,-251,-60,-209,-533,-123,-342,-347,-398,-383,-283,21
-292,-253,-255,-261,-60,-216,-532,-126,-330,-348,-396,-385,-285,21
-289,-251,-259,-253,-40,-224,-534,-130,-348,-347,-385,-386,-285,21
-285,-247,-241,-244,-34,-227,-531,-129,-366,-351,-396,-382,-286,22
-287,-260,-232,-246,-42,-240,-515,-127,-348,-352,-418,-379,-281,23
-293,-277,-234,-244,-39,-247,-511,-127,-333,-348,-408,-384,-277,21
-286,-275,-239,-245,-39,-235,-531,-126,-333,-350,-387,-386,-279,19
-278,-271,-249,-253,-48,-235,-545,-125,-327,-351,-373,-375,-280,20
-284,-283,-243,-263,-47,-254,-537,-126,-309,-352,-354,-370,-280,25
-292,-289,-222,-271,-43,-275,-520,-126,-292,-352,-374,-373,-278,17
-289,-267,-201,-237,-44,-276,-488,-126,-338,-347,-477,-357,-272,11
-288,-239,-193,-194,-32,-250,-463,-126,-410,-345,-550,-349,-276,14
-291,-249,-223,-220,-11,-251,-483,-126,-378,-346,-460,-372,-284,6
-289,-285,-246,-258,-11,-293,-512,-126,-302,-344,-350,-382,-283,-5
-290,-263,-208,-214,-1,-283,-500,-126,-360,-341,-451,-358,-280,-6
-293,-221,-197,-167,27,-233,-492,-126,-402,-344,-585,-353,-280,-7
-292,-241,-251,-206,12,-238,-518,-126,-275,-354,-518,-380,-282,-9
-292,-242,-246,-208,-4,-254,-512,-126,-310,-341,-464,-382,-283,-8
-291,-195,-195,-139,28,-241,-476,-126,-534,-321,-507,-362,-282,-21
-290,-208,-201,-141,53,-247,-473,-126,-530,-329,-523,-361,-280,-34
-288,-254,-208,-182,63,-255,-474,-126,-459,-322,-526,-367,-280,-38
-290,-216,-177,-157,90,-228,-435,-126,-690,-280,-513,-366,-281,-42
-291,-174,-193,-166,97,-230,-438,-127,-753,-267,-494,-377,-276,-47
-290,-195,-236,-230,89,-268,-481,-128,-593,-272,-516,-390,-274,-52
-290,-183,-253,-222,125,-256,-471,-127,-725,-249,-526,-384,-274,-60
-290,-141,-262,-185,164,-211,-445,-127,-956,-246,-463,-380,-276,-67
-289,-132,-248,-196,172,-206,-445,-127,-980,-275,-455,-385,-276,-71
-291,-111,-237,-214,203,-225,-423,-127,-1025,-286,-485,-384,-275,-71
-290,-73,-268,-231,250,-216,-398,-127,-1122,-279,-451,-382,-276,-68
-288,-59,-285,-259,258,-191,-412,-127,-1104,-286,-409,-386,-279,-65
-290,-39,-259,-253,261,-177,-409,-127,-1144,-294,-416,-379,-277,-68
-292,8,-253,-234,290,-173,-391,-127,-1233,-289,-423,-374,-279,-65
-288,41,-279,-239,308,-154,-393,-127,-1248,-284,-420,-377,-287,-49
-287,62,-309,-241,300,-130,-384,-127,-1231,-289,-464,-372,-286,-42
-291,54,-329,-250,308,-147,-394,-127,-1168,-285,-478,-368,-284,-47
-293,27,-327,-267,339,-172,-419,-127,-1111,-264,-435,-381,-287,-43
-291,39,-326,-281,337,-171,-406,-127,-1108,-254,-423,-385,-282,-36
-291,64,-317,-273,306,-173,-391,-127,-1144,-253,-433,-369,-274,-39
-293,55,-298,-270,308,-188,-411,-127,-1115,-260,-441,-356,-272,-42
-291,54,-306,-283,321,-188,-429,-127,-1044,-276,-465,-365,-275,-40
-291,86,-342,-291,303,-167,-436,-127,-1012,-280,-465,-384,-273,-41
-295,86,-360,-294,287,-161,-447,-127,-995,-273,-435,-382,-261,-39
-298,53,-351,-290,290,-179,-444,-127,-966,-276,-433,-367,-245,-39
-294,53,-346,-293,283,-197,-440,-127,-927,-282,-408,-370,-254,-39
-291,71,-369,-295,276,-190,-451,-127,-884,-288,-371,-374,-269,-37
-293,63,-386,-290,278,-195,-477,-127,-828,-306,-371,-366,-257,-34
-295,43,-369,-287,279,-223,-489,-127,-806,-313,-359,-363,-249,-28
-293,25,-362,-297,279,-238,-461,-127,-814,-306,-308,-367,-257,-27
-292,17,-374,-303,265,-236,-464,-127,-783,-310,-280,-366,-257,-31
-293,18,-380,-296,239,-230,-505,-127,-719,-318,-297,-365,-257,-26
-293,-8,-374,-286,222,-231,-498,-127,-683,-314,-298,-366,-272,-13
-294,-45,-364,-272,215,-244,-472,-127,-660,-313,-278,-366,-279,-8
-294,-44,-366,-261,204,-258,-491,-127,-620,-332,-257,-366,-275,-11
-292,-47,-376,-259,192,-273,-510,-127,-579,-348,-250,-364,-276,-11
-293,-71,-370,-257,179,-286,-500,-127,-541,-349,-261,-362,-275,-9
-295,-74,-359,-261,155,-287,-497,-127,-497,-351,-267,-361,-273,-9
-294,-82,-376,-265,140,-298,-501,-127,-450,-353,-263,-362,-272,-9
-295,-103,-391,-260,139,-321,-503,-127,-401,-347,-268,-361,-271,-8
-289,-314,-351,-213,78,-323,-441,-131,-247,-354,-252,-341,-242,-15
-289,-311,-363,-201,74,-319,-453,-131,-252,-361,-251,-345,-242,-17
-290,-304,-360,-224,70,-314,-453,-131,-246,-376,-267,-342,-242,-18
-287,-298,-361,-230,67,-317,-448,-131,-246,-372,-272,-342,-242,-22
-283,-298,-364,-215,63,-322,-445,-131,-265,-368,-263,-346,-242,-17
-290,-306,-343,-227,63,-319,-435,-131,-274,-369,-265,-345,-242,-7
-294,-310,-329,-235,71,-315,-434,-131,-271,-371,-278,-345,-242,-9
-288,-320,-332,-223,82,-317,-443,-131,-269,-373,-281,-345,-242,-11
-286,-336,-332,-230,86,-320,-441,-131,-272,-372,-263,-345,-242,-8
-289,-344,-327,-239,84,-320,-429,-131,-277,-369,-253,-345,-242,-13
-289,-351,-327,-239,85,-316,-419,-131,-278,-372,-259,-345,-242,-15
-288,-352,-327,-250,86,-315,-416,-131,-272,-368,-261,-346,-242,-9
-290,-347,-334,-249,79,-319,-418,-131,-270,-364,-266,-344,-242,-10
-291,-356,-349,-230,86,-319,-416,-131,-279,-370,-260,-341,-242,-10
-288,-380,-350,-240,103,-316,-412,-131,-282,-372,-239,-336,-242,-9
-285,-382,-346,-254,94,-319,-414,-131,-280,-369,-247,-335,-242,-10
-291,-356,-350,-247,79,-321,-414,-131,-280,-371,-261,-343,-243,-13
-295,-339,-348,-248,80,-314,-410,-131,-277,-371,-253,-347,-242,-11
-289,-348,-334,-251,81,-316,-406,-131,-288,-370,-255,-343,-242,-10
-285,-362,-321,-239,83,-318,-410,-131,-298,-370,-271,-339,-243,-10
-288,-365,-324,-233,83,-300,-417,-131,-294,-373,-272,-339,-242,-10
-289,-365,-342,-241,82,-282,-425,-131,-286,-373,-268,-339,-241,-10
-289,-378,-357,-236,87,-282,-438,-131,-282,-368,-261,-343,-242,-11
-290,-395,-360,-212,90,-277,-452,-131,-271,-366,-253,-338,-245,-9
-290,-405,-362,-204,80,-256,-447,-131,-266,-373,-263,-324,-245,-8
-291,-406,-354,-219,77,-250,-428,-132,-277,-375,-268,-325,-244,-8
-291,-411,-330,-227,81,-281,-404,-133,-283,-370,-264,-338,-243,-9
-289,-425,-320,-223,76,-293,-385,-133,-281,-368,-272,-341,-241,-8
-289,-418,-336,-239,75,-265,-378,-133,-278,-369,-281,-342,-241,-9
-290,-414,-351,-245,80,-258,-381,-133,-276,-369,-277,-343,-242,-9
-289,-439,-342,-229,82,-273,-384,-133,-277,-368,-270,-343,-241,-9
-288,-448,-334,-236,87,-272,-385,-133,-273,-370,-269,-341,-241,-9
-293,-433,-351,-240,89,-266,-390,-133,-272,-370,-266,-342,-242,-9
-285,-441,-369,-216,69,-256,-402,-133,-272,-370,-259,-345,-241,-9
-273,-464,-363,-217,59,-239,-417,-133,-257,-371,-259,-333,-241,-9
-283,-450,-360,-238,71,-242,-425,-133,-242,-370,-268,-311,-242,-9
-295,-447,-362,-241,73,-254,-402,-133,-255,-370,-272,-307,-243,-9
-290,-481,-356,-240,80,-258,-364,-133,-276,-371,-269,-313,-239,-9
-288,-494,-349,-241,94,-268,-346,-133,-279,-369,-269,-311,-242,-9
-292,-484,-336,-238,89,-268,-349,-133,-280,-366,-272,-309,-245,-9
-288,-479,-336,-237,66,-259,-356,-133,-280,-368,-269,-312,-229,-9
-290,-474,-358,-232,53,-254,-368,-133,-283,-371,-265,-312,-221,-9
-292,-466,-366,-217,48,-245,-383,-133,-292,-370,-263,-313,-240,-9
-291,-476,-361,-203,46,-243,-384,-133,-284,-367,-266,-314,-246,-9
-293,-479,-366,-208,54,-247,-386,-133,-272,-368,-265,-313,-231,-9
-291,-472,-351,-230,63,-244,-387,-133,-278,-371,-258,-314,-230,-9
-290,-494,-325,-242,62,-245,-369,-133,-280,-375,-261,-313,-233,-9
-291,-503,-339,-239,49,-257,-346,-133,-272,-377,-263,-313,-233,-9
-293,-481,-365,-233,45,-256,-346,-133,-279,-375,-261,-313,-240,-9
-294,-477,-361,-229,50,-233,-370,-133,-279,-371,-264,-313,-244,-9
-291,-489,-362,-229,49,-225,-387,-133,-258,-374,-266,-313,-239,-9
-290,-451,-382,-222,-66,-210,-319,-133,-207,-371,-328,-309,-223,1
-289,-444,-400,-224,-70,-205,-330,-133,-186,-373,-329,-311,-233,-6
-286,-447,-399,-206,-73,-210,-356,-133,-175,-378,-349,-310,-232,-12
-288,-448,-394,-200,-72,-208,-346,-133,-186,-377,-341,-310,-224,-7
-292,-453,-384,-211,-69,-208,-316,-133,-192,-378,-332,-310,-228,-5
-291,-466,-361,-210,-66,-213,-317,-133,-207,-386,-354,-297,-230,-9
-288,-463,-361,-183,-71,-216,-325,-133,-228,-385,-365,-294,-225,-9
-289,-438,-383,-161,-80,-215,-322,-133,-227,-376,-360,-309,-226,-8
-291,-433,-385,-168,-75,-213,-322,-133,-224,-374,-363,-312,-227,-8
-291,-448,-382,-196,-73,-208,-324,-133,-217,-376,-350,-298,-224,-8
-292,-451,-398,-208,-90,-203,-335,-133,-187,-377,-328,-294,-223,-8
-291,-451,-402,-201,-94,-214,-340,-133,-177,-378,-329,-302,-224,-8
-287,-451,-380,-208,-73,-221,-336,-133,-206,-381,-329,-314,-226,-9
-289,-452,-370,-216,-66,-204,-340,-133,-222,-381,-322,-320,-222,-9
-291,-464,-390,-209,-74,-191,-334,-133,-208,-376,-325,-314,-219,-8
-289,-460,-402,-215,-72,-210,-321,-133,-200,-375,-326,-311,-220,-8
-290,-443,-393,-234,-69,-230,-321,-133,-208,-377,-324,-313,-222,-9
-290,-446,-392,-234,-74,-223,-328,-133,-209,-378,-325,-300,-220,-5
-289,-453,-394,-216,-80,-213,-341,-133,-198,-378,-327,-288,-221,2
-291,-452,-388,-203,-77,-215,-346,-133,-192,-378,-330,-294,-222,1
-292,-455,-389,-209,-78,-216,-332,-133,-197,-374,-335,-302,-221,-8
-289,-449,-386,-221,-100,-213,-331,-133,-205,-371,-324,-308,-221,-10
-288,-434,-379,-214,-100,-215,-339,-133,-218,-375,-311,-313,-221,-6
-289,-449,-386,-199,-74,-220,-321,-133,-223,-380,-317,-310,-223,-7
-289,-472,-382,-207,-71,-219,-314,-133,-218,-379,-316,-308,-222,-10
-288,-461,-372,-222,-76,-217,-336,-133,-233,-375,-306,-307,-221,-7
-289,-449,-385,-213,-74,-219,-341,-133,-241,-378,-317,-292,-220,-1
-292,-454,-399,-190,-92,-224,-324,-133,-219,-381,-334,-283,-220,2
-290,-453,-394,-181,-114,-222,-312,-133,-210,-374,-316,-289,-222,0
-289,-455,-387,-193,-112,-217,-327,-133,-214,-368,-289,-295,-223,-2
-295,-459,-373,-205,-103,-207,-347,-133,-211,-371,-305,-296,-221,-1
-295,-450,-359,-201,-105,-200,-342,-133,-216,-378,-334,-300,-220,-1
-288,-437,-374,-203,-111,-208,-330,-133,-218,-378,-325,-301,-222,-2
-288,-440,-387,-221,-111,-216,-326,-133,-203,-378,-300,-299,-221,-1
-290,-452,-376,-220,-108,-210,-320,-133,-217,-379,-300,-299,-219,-1
-288,-456,-374,-206,-105,-202,-318,-133,-239,-379,-307,-298,-219,-5
-288,-453,-389,-220,-105,-207,-330,-133,-226,-379,-293,-297,-220,-7
-289,-453,-389,-233,-104,-214,-330,-133,-214,-379,-280,-291,-223,-7
-287,-457,-382,-220,-105,-214,-316,-133,-220,-379,-286,-292,-224,-8
-289,-451,-389,-213,-106,-212,-322,-133,-214,-378,-283,-302,-223,-9
-290,-444,-398,-224,-106,-205,-345,-133,-212,-379,-272,-302,-221,-8
-288,-443,-414,-225,-106,-189,-348,-133,-217,-378,-282,-298,-220,-8
-291,-350,-414,-179,-106,-138,-323,-131,-333,-378,-396,-278,-212,-8
-289,-353,-384,-188,-91,-139,-317,-131,-335,-383,-405,-280,-212,-8
-293,-359,-388,-204,-82,-141,-311,-131,-334,-384,-394,-277,-212,-7
-293,-358,-405,-196,-87,-147,-306,-131,-332,-381,-384,-278,-212,-6
-287,-357,-393,-173,-93,-150,-293,-131,-333,-380,-406,-289,-212,-8
-291,-369,-386,-172,-98,-152,-288,-131,-336,-381,-409,-296,-212,-11
-297,-381,-392,-185,-96,-156,-299,-131,-342,-381,-388,-293,-212,-11
-294,-366,-388,-191,-89,-157,-303,-131,-339,-378,-396,-291,-212,-9
-290,-347,-376,-179,-89,-159,-294,-131,-338,-377,-411,-292,-212,-8
-292,-368,-362,-169,-96,-163,-290,-131,-355,-377,-397,-291,-212,-9
-292,-387,-362,-192,-107,-168,-290,-131,-359,-377,-374,-291,-212,-9
-289,-362,-381,-216,-109,-167,-290,-131,-321,-377,-363,-292,-212,-8
-290,-339,-396,-202,-83,-163,-305,-131,-300,-375,-365,-291,-212,-8
-293,-358,-391,-191,-80,-164,-319,-131,-319,-378,-366,-290,-212,-8
-291,-378,-385,-207,-107,-171,-304,-131,-330,-384,-360,-292,-212,-8
-288,-368,-392,-207,-109,-176,-294,-131,-316,-382,-379,-290,-212,-8
-291,-353,-397,-181,-102,-180,-312,-131,-309,-378,-398,-283,-212,-8
-293,-355,-393,-173,-108,-186,-320,-131,-314,-379,-380,-280,-212,-8
-291,-361,-391,-189,-111,-185,-316,-131,-298,-381,-380,-282,-212,-8
-288,-366,-389,-205,-106,-182,-322,-131,-272,-381,-400,-282,-212,-8
-290,-372,-382,-208,-108,-193,-323,-131,-272,-381,-387,-286,-212,-8
-292,-372,-393,-205,-105,-200,-316,-131,-282,-381,-354,-292,-212,-8
-291,-370,-411,-215,-103,-195,-315,-131,-272,-380,-352,-292,-212,-8
-291,-366,-411,-213,-106,-195,-319,-131,-267,-380,-361,-290,-212,-9
-293,-361,-415,-192,-107,-198,-322,-131,-277,-380,-350,-295,-212,-9
-292,-365,-424,-196,-109,-197,-323,-131,-255,-380,-351,-294,-212,-8
-290,-374,-422,-211,-105,-193,-322,-131,-236,-380,-377,-282,-213,-9
-289,-374,-414,-198,-109,-190,-323,-131,-256,-380,-391,-279,-211,-9
-287,-359,-404,-195,-120,-186,-326,-131,-274,-380,-376,-286,-213,-7
-290,-350,-394,-209,-123,-190,-322,-131,-269,-380,-369,-290,-213,-6
-290,-356,-388,-202,-125,-201,-321,-131,-268,-380,-378,-291,-208,-8
-288,-357,-389,-186,-138,-203,-327,-131,-280,-380,-374,-293,-207,-9
-290,-360,-398,-195,-144,-195,-319,-131,-284,-380,-359,-291,-211,-8
-292,-360,-404,-210,-134,-194,-311,-131,-273,-380,-357,-289,-212,-8
-306,-344,-363,-33,-218,-185,-252,-134,-377,-395,-360,-290,-217,-19
-307,-347,-373,-30,-194,-182,-248,-136,-402,-398,-357,-291,-215,-23
-304,-327,-380,-42,-206,-165,-281,-125,-392,-389,-357,-292,-211,-22
-297,-330,-377,-29,-233,-175,-296,-137,-368,-381,-358,-293,-213,-11
-296,-348,-364,-24,-235,-187,-269,-157,-379,-394,-352,-292,-215,-6
-295,-359,-344,-55,-227,-179,-247,-142,-400,-405,-356,-288,-213,-12
-296,-367,-336,-55,-236,-187,-263,-124,-393,-399,-359,-280,-212,-11
-292,-352,-353,-22,-258,-193,-275,-133,-387,-399,-355,-278,-212,-6
-292,-342,-368,-19,-257,-165,-254,-138,-398,-402,-362,-287,-212,-9
-297,-367,-363,-41,-233,-159,-244,-132,-401,-388,-361,-294,-212,-11
-299,-365,-359,-40,-228,-186,-257,-134,-407,-393,-342,-294,-212,-7
-297,-345,-350,-32,-255,-188,-263,-134,-424,-411,-325,-293,-213,-6
-293,-362,-342,-38,-266,-174,-258,-130,-420,-403,-322,-293,-212,-10
-294,-373,-360,-19,-248,-179,-257,-134,-401,-402,-345,-295,-212,-13
-295,-356,-362,5,-236,-187,-261,-133,-401,-410,-358,-293,-215,-10
-293,-358,-343,-13,-255,-182,-276,-128,-409,-391,-338,-292,-215,-8
-294,-374,-343,-31,-277,-172,-280,-144,-393,-377,-336,-295,-212,-10
-294,-376,-351,-21,-265,-173,-252,-162,-398,-399,-365,-291,-211,-12
-294,-386,-332,-37,-244,-188,-223,-150,-426,-411,-369,-281,-211,-11
-294,-400,-312,-69,-231,-202,-217,-149,-422,-388,-354,-284,-211,-10
-291,-407,-320,-50,-226,-201,-222,-161,-411,-385,-348,-295,-212,-10
-292,-409,-331,2,-239,-188,-236,-144,-426,-397,-364,-294,-213,-10
-294,-395,-341,29,-248,-177,-250,-125,-435,-389,-404,-289,-212,-10
-293,-369,-365,23,-240,-170,-262,-127,-421,-376,-412,-292,-212,-10
-292,-358,-373,23,-252,-154,-262,-137,-405,-376,-413,-296,-212,-10
-293,-371,-345,41,-280,-144,-254,-143,-403,-387,-438,-291,-212,-10
-292,-392,-327,37,-270,-169,-258,-143,-416,-400,-402,-281,-212,-12
-295,-406,-328,-1,-254,-194,-242,-144,-415,-405,-351,-277,-212,-8
-299,-406,-318,-17,-262,-189,-221,-155,-397,-390,-365,-282,-212,-11
-295,-404,-317,7,-256,-180,-244,-156,-393,-379,-371,-282,-212,-21
-294,-405,-324,18,-248,-180,-269,-149,-409,-383,-352,-279,-212,-18
-293,-406,-329,25,-247,-180,-249,-152,-421,-382,-387,-283,-211,-8
-289,-408,-342,68,-234,-172,-237,-157,-427,-379,-426,-288,-212,-11
-289,-502,-390,43,-329,-200,-282,-158,-227,-382,-414,-260,-214,-8
-289,-514,-396,43,-340,-210,-289,-158,-236,-383,-396,-262,-214,-9
-288,-495,-379,18,-341,-211,-314,-158,-251,-379,-380,-254,-214,-9
-288,-466,-400,26,-335,-192,-320,-158,-245,-376,-389,-255,-214,-8
-288,-460,-441,56,-343,-174,-319,-158,-232,-381,-390,-262,-214,-8
-289,-480,-421,36,-345,-177,-324,-158,-236,-384,-365,-262,-214,-9
-290,-495,-375,1,-332,-183,-329,-158,-250,-381,-347,-261,-214,-9
-291,-486,-377,25,-335,-180,-324,-158,-249,-378,-367,-263,-214,-7
-293,-474,-388,54,-359,-179,-320,-158,-239,-379,-391,-262,-214,-9
-290,-482,-366,40,-371,-175,-321,-158,-247,-378,-393,-261,-214,-8
-283,-501,-349,29,-372,-168,-321,-158,-240,-377,-408,-260,-214,-3
-285,-513,-349,56,-381,-167,-316,-158,-215,-381,-434,-252,-214,-5
-293,-511,-347,87,-388,-173,-309,-158,-225,-383,-432,-248,-214,-9
-290,-508,-344,85,-385,-182,-296,-158,-243,-379,-427,-248,-214,-9
-281,-523,-355,74,-374,-188,-291,-158,-221,-377,-430,-249,-214,-9
-284,-557,-380,68,-365,-181,-312,-158,-200,-379,-396,-253,-214,-9
-290,-573,-390,57,-356,-171,-328,-158,-213,-378,-351,-259,-214,-6
-289,-574,-388,53,-344,-171,-324,-158,-218,-378,-347,-261,-214,-6
-288,-589,-382,51,-333,-180,-323,-158,-208,-380,-361,-265,-214,-7
-288,-603,-369,50,-330,-190,-326,-158,-219,-377,-356,-262,-214,-6
-289,-595,-362,69,-334,-199,-321,-158,-247,-377,-352,-252,-215,-6
-293,-579,-366,85,-343,-199,-319,-158,-247,-385,-362,-247,-215,-7
-283,-574,-365,78,-349,-194,-330,-158,-233,-386,-356,-251,-213,-6
-272,-574,-360,82,-352,-204,-331,-158,-240,-378,-363,-250,-216,-6
-279,-576,-356,83,-347,-217,-330,-158,-237,-376,-391,-247,-215,-9
-289,-569,-352,62,-337,-214,-330,-158,-227,-378,-389,-250,-205,-10
-282,-555,-365,53,-335,-214,-320,-158,-246,-377,-359,-252,-204,-8
-275,-551,-385,52,-338,-211,-316,-158,-256,-376,-353,-250,-213,-6
-281,-527,-384,29,-352,-196,-340,-158,-227,-376,-365,-251,-213,-8
-277,-512,-379,23,-367,-191,-363,-158,-224,-375,-358,-251,-208,-11
-266,-241,-427,-267,-247,-147,-415,-160,-243,-386,-363,-288,-210,-11
-261,-247,-422,-265,-259,-140,-413,-160,-269,-381,-365,-281,-205,-10
-276,-229,-418,-269,-262,-121,-404,-160,-275,-378,-340,-281,-206,-10
-279,-220,-431,-282,-251,-112,-399,-160,-273,-380,-334,-282,-204,-11
-273,-232,-445,-293,-243,-104,-405,-160,-277,-380,-348,-282,-201,-10
-276,-236,-443,-295,-256,-94,-418,-160,-271,-379,-343,-280,-205,-10
-279,-223,-446,-295,-260,-89,-414,-160,-276,-380,-329,-277,-210,-11
-276,-214,-455,-296,-237,-89,-400,-160,-304,-380,-341,-283,-206,-10
-275,-230,-447,-304,-231,-89,-402,-160,-303,-380,-351,-288,-207,-9
-278,-244,-430,-323,-247,-100,-417,-160,-279,-380,-324,-283,-209,-10
-276,-237,-440,-342,-236,-117,-416,-160,-278,-380,-308,-282,-204,-10
-271,-237,-460,-342,-214,-114,-397,-160,-291,-380,-329,-284,-206,-11
-269,-253,-453,-314,-222,-108,-403,-160,-305,-380,-329,-284,-212,-12
-271,-245,-437,-292,-230,-111,-417,-160,-318,-379,-294,-283,-208,-7
-273,-222,-437,-298,-223,-107,-415,-160,-310,-380,-306,-283,-209,-6
-270,-233,-433,-303,-224,-109,-413,-160,-305,-379,-337,-281,-211,-10
-270,-254,-418,-293,-231,-119,-400,-160,-329,-379,-313,-281,-197,-11
-278,-255,-417,-290,-232,-118,-380,-160,-343,-382,-292,-282,-199,-8
-278,-246,-423,-299,-229,-112,-383,-160,-345,-382,-309,-282,-209,-10
-273,-235,-408,-303,-244,-113,-396,-160,-350,-379,-315,-279,-200,-12
-271,-235,-404,-292,-257,-106,-385,-160,-340,-382,-308,-283,-204,-10
-273,-243,-440,-292,-230,-101,-377,-160,-328,-386,-312,-287,-221,-7
-276,-249,-456,-315,-199,-113,-401,-160,-335,-382,-285,-285,-204,-7
-275,-260,-435,-329,-195,-134,-421,-160,-327,-380,-245,-282,-185,-11
-274,-282,-423,-333,-174,-172,-407,-160,-292,-390,-250,-284,-204,-11
-286,-304,-410,-345,-130,-222,-378,-160,-306,-390,-248,-284,-220,-10
-290,-314,-392,-354,-104,-244,-369,-161,-360,-375,-210,-283,-208,-11
-258,-81,-443,-549,-19,-331,-383,-155,-411,-373,-268,-281,-190,-65
-259,-75,-465,-549,-5,-350,-395,-155,-394,-370,-281,-287,-191,-80
-264,-66,-464,-569,-37,-331,-413,-155,-364,-377,-271,-297,-192,-91
-262,-46,-465,-580,-36,-310,-419,-155,-362,-377,-259,-290,-190,-105
-253,-44,-458,-577,7,-334,-408,-155,-388,-360,-275,-283,-193,-115
-254,-68,-460,-572,35,-354,-406,-155,-419,-344,-302,-288,-196,-117
-256,-79,-477,-571,36,-351,-416,-155,-406,-332,-302,-288,-194,-121
-257,-42,-448,-578,-87,-351,-397,-155,-359,-319,-263,-282,-189,-133
-250,-11,-414,-572,-155,-353,-396,-155,-374,-312,-248,-281,-189,-145
-244,-41,-440,-577,43,-352,-422,-155,-453,-316,-311,-282,-199,-145
-253,-66,-459,-606,140,-349,-402,-155,-459,-318,-350,-281,-207,-141
-263,-40,-447,-601,-42,-347,-360,-155,-404,-320,-316,-286,-205,-148
-262,-34,-438,-566,-61,-346,-374,-155,-410,-319,-306,-292,-199,-158
-258,-43,-432,-571,71,-340,-407,-155,-433,-314,-346,-292,-203,-155
-256,-13,-410,-579,-23,-318,-383,-155,-419,-328,-382,-289,-205,-150
-258,3,-420,-564,-110,-308,-353,-155,-417,-345,-376,-286,-203,-145
-251,-15,-463,-585,40,-333,-377,-155,-429,-335,-362,-289,-208,-141
-238,-18,-462,-599,132,-342,-408,-155,-430,-324,-398,-294,-212,-142
-248,18,-420,-593,63,-323,-392,-155,-419,-340,-451,-287,-212,-144
-263,53,-407,-608,-1,-303,-353,-155,-403,-352,-460,-277,-209,-145
-257,54,-427,-609,-27,-286,-348,-155,-388,-345,-461,-282,-209,-146
-258,53,-430,-588,16,-287,-380,-155,-404,-340,-493,-285,-211,-144
-267,79,-441,-595,56,-291,-385,-155,-448,-341,-500,-279,-213,-145
-264,111,-471,-634,-12,-276,-363,-155,-443,-336,-467,-288,-213,-153
-261,116,-468,-642,-31,-286,-367,-155,-389,-322,-498,-304,-214,-157
-302,265,-305,-427,-15,-241,-226,-164,-811,-317,-658,-282,-210,-59
-307,281,-325,-420,-41,-239,-216,-143,-808,-321,-635,-281,-212,-62
-323,278,-313,-414,-27,-248,-252,-124,-808,-319,-640,-277,-214,-64
-316,271,-283,-411,-9,-256,-265,-131,-850,-316,-626,-278,-212,-60
-314,262,-291,-420,-27,-258,-221,-133,-825,-320,-624,-286,-209,-62
-326,239,-316,-401,-44,-256,-175,-144,-816,-318,-631,-284,-211,-65
-321,234,-300,-389,-26,-254,-195,-165,-875,-314,-615,-275,-212,-63
-308,256,-291,-420,1,-269,-217,-148,-854,-321,-631,-281,-210,-62
-312,256,-318,-437,18,-280,-203,-121,-767,-323,-675,-293,-210,-62
-314,234,-314,-424,11,-267,-210,-142,-779,-317,-670,-294,-212,-60
-313,233,-282,-411,-9,-252,-235,-154,-870,-319,-635,-292,-214,-60
-320,237,-293,-399,-11,-249,-233,-135,-880,-322,-637,-294,-212,-62
-315,236,-328,-406,-15,-248,-230,-139,-815,-320,-646,-293,-210,-63
-310,238,-333,-424,-42,-238,-253,-152,-784,-317,-621,-293,-213,-61
-310,236,-328,-401,-52,-230,-268,-135,-808,-309,-607,-295,-215,-59
-307,244,-330,-377,-37,-228,-268,-125,-814,-305,-626,-290,-212,-62
-305,255,-329,-391,-43,-225,-265,-132,-783,-312,-629,-294,-211,-65
-308,246,-339,-397,-47,-221,-255,-129,-788,-319,-606,-306,-214,-61
-309,220,-343,-385,-44,-223,-245,-148,-816,-322,-591,-296,-213,-61
-310,206,-321,-379,-45,-239,-249,-162,-809,-321,-594,-280,-211,-63
-307,208,-307,-386,-20,-252,-250,-134,-812,-316,-597,-283,-214,-61
-295,201,-325,-391,7,-264,-224,-130,-842,-317,-587,-286,-213,-63
-295,193,-340,-384,-36,-277,-210,-156,-828,-320,-571,-280,-210,-67
-293,42,-361,-342,-73,-324,-286,-158,-695,-325,-400,-311,-212,-66
-294,55,-368,-347,-111,-294,-271,-158,-711,-320,-373,-298,-212,-70
-295,50,-364,-345,-124,-278,-267,-158,-723,-324,-348,-286,-212,-74
-304,49,-356,-336,-127,-303,-290,-158,-683,-325,-357,-291,-212,-76
-312,46,-361,-332,-119,-309,-301,-158,-688,-319,-360,-294,-212,-68
-306,35,-371,-349,-104,-291,-288,-158,-707,-319,-349,-294,-213,-65
-304,42,-371,-361,-110,-286,-288,-158,-681,-320,-361,-302,-213,-74
-306,43,-371,-348,-112,-293,-301,-158,-685,-322,-364,-307,-211,-72
-303,29,-371,-353,-100,-295,-301,-158,-716,-320,-335,-307,-210,-58
-301,22,-364,-358,-106,-298,-282,-160,-709,-320,-333,-304,-213,-58
-297,18,-355,-337,-112,-307,-257,-159,-701,-323,-368,-295,-214,-68
-286,13,-346,-334,-103,-314,-248,-157,-719,-320,-376,-294,-212,-68
-287,13,-348,-358,-102,-319,-258,-159,-723,-315,-339,-304,-212,-62
-295,9,-355,-365,-102,-318,-274,-161,-712,-324,-321,-309,-215,-62
-288,-7,-360,-341,-94,-319,-273,-160,-715,-339,-330,-309,-214,-68
-284,-10,-369,-335,-96,-319,-246,-159,-722,-343,-327,-311,-212,-71
-298,3,-381,-354,-97,-317,-240,-159,-704,-342,-327,-312,-213,-69
-307,4,-373,-360,-89,-316,-285,-158,-686,-338,-342,-303,-213,-69
-303,-9,-370,-347,-85,-321,-299,-159,-700,-328,-321,-298,-212,-71
-300,-12,-389,-355,-86,-320,-264,-158,-705,-316,-302,-309,-212,-70
-303,-3,-379,-365,-92,-314,-261,-158,-675,-321,-335,-313,-212,-67
-323,-70,-312,-198,-100,-231,-352,-159,-802,-326,-270,-308,-218,-68
-325,-65,-293,-205,-128,-234,-353,-159,-778,-339,-251,-314,-216,-81
-325,-37,-292,-209,-131,-234,-360,-159,-778,-340,-250,-307,-221,-85
-324,-50,-313,-185,-99,-233,-370,-159,-784,-334,-255,-305,-224,-79
-325,-81,-318,-168,-105,-239,-367,-159,-766,-339,-254,-303,-221,-78
-325,-72,-315,-183,-131,-243,-368,-159,-734,-341,-248,-292,-222,-83
-323,-67,-315,-185,-126,-245,-384,-159,-723,-335,-235,-285,-227,-81
-325,-84,-317,-178,-120,-249,-382,-159,-724,-337,-217,-299,-225,-71
-327,-83,-317,-200,-135,-226,-380,-159,-669,-339,-219,-322,-219,-61
-326,-71,-328,-211,-159,-184,-410,-159,-601,-337,-239,-327,-221,-63
-325,-72,-348,-215,-168,-174,-423,-159,-606,-339,-231,-322,-225,-69
-326,-85,-353,-230,-162,-184,-412,-159,-627,-341,-212,-324,-223,-65
-325,-98,-351,-226,-171,-183,-424,-159,-607,-339,-212,-325,-222,-65
-324,-102,-351,-208,-181,-182,-446,-159,-599,-338,-212,-313,-223,-69
-325,-98,-349,-212,-170,-182,-434,-159,-613,-340,-211,-307,-223,-66
-325,-112,-347,-227,-168,-185,-406,-159,-599,-340,-230,-312,-221,-60
-322,-126,-352,-234,-197,-182,-416,-159,-568,-339,-236,-314,-223,-63
-320,-115,-353,-234,-220,-160,-439,-159,-548,-337,-237,-309,-220,-63
-323,-115,-346,-214,-228,-145,-445,-159,-530,-338,-252,-308,-219,-61
-323,-133,-350,-205,-232,-152,-450,-159,-519,-342,-240,-318,-230,-66
-320,-128,-362,-225,-237,-152,-450,-159,-521,-340,-223,-324,-229,-67
-321,-110,-365,-218,-239,-144,-449,-159,-525,-339,-238,-314,-220,-63
-297,-120,-386,-224,-298,-248,-545,-159,-317,-345,-293,-328,-218,-54
-300,-116,-391,-253,-283,-251,-537,-159,-287,-343,-281,-337,-212,-54
-303,-110,-407,-277,-266,-265,-546,-159,-275,-343,-276,-340,-212,-60
-294,-83,-411,-292,-275,-273,-559,-159,-274,-347,-273,-337,-215,-63
-288,-69,-416,-296,-277,-269,-562,-159,-272,-347,-261,-340,-215,-59
-294,-73,-438,-311,-260,-261,-570,-159,-254,-345,-249,-345,-215,-58
-297,-70,-458,-333,-256,-265,-584,-159,-227,-345,-231,-345,-213,-56
-292,-46,-467,-332,-274,-270,-606,-159,-218,-345,-218,-348,-215,-57
-292,-32,-475,-324,-280,-265,-620,-159,-212,-348,-226,-356,-218,-60
-293,-17,-467,-336,-277,-273,-611,-159,-211,-350,-235,-355,-215,-56
-297,23,-458,-352,-284,-291,-603,-159,-223,-348,-234,-345,-215,-55
-294,44,-482,-343,-299,-294,-615,-159,-207,-347,-249,-337,-216,-61
-288,37,-504,-328,-315,-281,-622,-159,-172,-348,-284,-339,-213,-64
-292,57,-487,-318,-329,-272,-642,-159,-179,-346,-293,-342,-214,-55
-295,95,-463,-311,-345,-269,-662,-159,-220,-346,-275,-328,-220,-46
-294,85,-455,-319,-345,-288,-619,-159,-233,-347,-272,-323,-220,-48
-296,57,-433,-326,-333,-318,-564,-159,-235,-345,-292,-334,-220,-51
-297,78,-413,-304,-350,-322,-566,-159,-279,-348,-312,-331,-219,-49
-294,115,-414,-289,-373,-301,-566,-158,-317,-353,-326,-318,-215,-52
-294,113,-427,-293,-369,-291,-534,-158,-304,-348,-333,-319,-214,-60
-263,-273,-390,111,-408,-359,-563,-162,-360,-348,-222,-320,-212,-112
-263,-273,-386,102,-409,-359,-555,-162,-367,-346,-227,-324,-208,-113
-275,-324,-385,119,-401,-325,-549,-162,-367,-359,-203,-319,-209,-122
-280,-342,-393,140,-397,-312,-542,-162,-374,-365,-202,-320,-211,-126
-269,-296,-388,125,-396,-347,-516,-162,-399,-357,-227,-332,-211,-121
-269,-294,-366,88,-378,-364,-503,-162,-396,-353,-232,-328,-212,-125
-274,-354,-344,82,-363,-331,-537,-162,-367,-353,-220,-316,-211,-125
-265,-333,-353,95,-365,-313,-548,-162,-376,-350,-240,-332,-209,-118
-261,-252,-396,88,-364,-345,-477,-162,-413,-352,-286,-347,-212,-124
-265,-240,-407,68,-361,-362,-450,-162,-412,-352,-303,-336,-213,-131
-261,-241,-373,57,-363,-336,-533,-162,-391,-346,-291,-334,-201,-125
-261,-188,-384,59,-368,-318,-552,-162,-392,-348,-306,-348,-198,-116
-261,-187,-429,57,-367,-320,-489,-162,-392,-349,-333,-349,-209,-114
-261,-220,-429,48,-363,-317,-486,-162,-393,-349,-335,-339,-213,-113
-262,-176,-395,46,-359,-315,-528,-162,-416,-352,-337,-331,-212,-114
-260,-127,-382,42,-369,-322,-518,-162,-420,-349,-361,-333,-210,-115
-262,-129,-381,22,-396,-321,-508,-162,-403,-346,-381,-333,-209,-117
-260,-119,-370,14,-400,-315,-542,-162,-404,-349,-373,-326,-209,-125
-259,-97,-364,31,-387,-328,-530,-162,-422,-352,-381,-331,-207,-126
-275,-340,-394,-145,-22,-79,-540,-162,-440,-371,-403,-352,-216,-109
-275,-342,-384,-147,-46,-87,-542,-162,-422,-365,-397,-334,-216,-117
-270,-353,-362,-143,-74,-105,-515,-162,-426,-371,-402,-327,-216,-130
-263,-364,-345,-146,-77,-114,-470,-162,-458,-377,-389,-333,-216,-124
-266,-374,-343,-157,-82,-114,-462,-162,-474,-375,-381,-334,-216,-111
-274,-375,-352,-160,-103,-106,-477,-162,-445,-374,-388,-333,-216,-117
-275,-366,-361,-157,-112,-108,-475,-162,-412,-377,-384,-335,-216,-125
-275,-351,-360,-160,-113,-116,-470,-162,-416,-374,-362,-336,-216,-119
-277,-338,-362,-162,-122,-103,-480,-162,-444,-370,-358,-342,-216,-119
-275,-351,-362,-150,-138,-88,-505,-162,-446,-372,-356,-338,-216,-120
-275,-366,-351,-141,-151,-98,-502,-162,-440,-371,-358,-326,-216,-112
-272,-350,-346,-148,-160,-103,-456,-162,-457,-374,-384,-324,-217,-115
-266,-338,-357,-137,-158,-98,-445,-162,-461,-377,-401,-323,-216,-117
-272,-341,-347,-121,-167,-97,-474,-162,-450,-371,-393,-323,-216,-108
-281,-326,-334,-132,-191,-87,-486,-162,-469,-365,-386,-337,-218,-108
-267,-307,-346,-152,-187,-78,-478,-162,-491,-369,-401,-348,-214,-116
-255,-305,-356,-154,-167,-97,-462,-162,-491,-371,-421,-341,-208,-113
-270,-297,-347,-151,-170,-123,-442,-162,-492,-368,-424,-326,-214,-110
-278,-264,-345,-170,-172,-121,-434,-162,-495,-370,-413,-325,-219,-114
-266,-162,-434,-425,961,-345,-776,-159,-503,-383,-649,-356,-223,-116
-262,-167,-442,-409,944,-352,-787,-159,-491,-378,-646,-367,-218,-117
-273,-193,-453,-381,937,-339,-763,-159,-519,-387,-640,-366,-217,-124
-277,-188,-461,-384,938,-327,-762,-159,-532,-398,-635,-353,-220,-125
-271,-159,-452,-408,941,-338,-774,-159,-513,-389,-644,-352,-221,-120
-275,-168,-449,-398,934,-335,-765,-159,-510,-378,-651,-357,-221,-120
-278,-175,-454,-379,906,-325,-765,-159,-525,-383,-640,-355,-224,-125
-277,-153,-447,-383,891,-334,-768,-159,-528,-383,-635,-355,-224,-124
-274,-170,-443,-397,900,-332,-747,-159,-529,-376,-635,-354,-219,-113
-263,-195,-438,-409,882,-316,-738,-159,-540,-381,-613,-350,-219,-108
-262,-177,-429,-423,859,-328,-754,-159,-538,-383,-586,-353,-218,-115
-275,-164,-442,-425,867,-343,-771,-159,-511,-378,-584,-356,-216,-114
-274,-163,-457,-418,875,-343,-775,-159,-508,-378,-587,-353,-217,-110
-268,-165,-438,-429,863,-347,-763,-159,-519,-381,-580,-355,-218,-119
-276,-192,-411,-422,847,-348,-751,-159,-512,-381,-578,-357,-220,-125
-278,-183,-411,-415,838,-356,-736,-159,-519,-382,-575,-356,-219,-126
-273,-152,-414,-444,836,-363,-724,-159,-526,-383,-551,-352,-218,-132
-277,-185,-412,-443,830,-343,-736,-159,-506,-383,-539,-355,-222,-123
-283,-195,-427,-411,800,-315,-744,-159,-498,-381,-554,-363,-224,-108
-260,-228,-384,53,-193,-354,-441,-159,-502,-377,-420,-352,-214,-112
-264,-243,-403,93,-203,-357,-434,-159,-492,-380,-406,-354,-215,-110
-261,-235,-412,113,-211,-374,-443,-159,-502,-388,-378,-356,-213,-112
-263,-219,-387,119,-233,-379,-466,-159,-510,-392,-397,-355,-218,-113
-269,-239,-388,180,-257,-363,-461,-159,-515,-405,-447,-354,-222,-103
-264,-253,-422,246,-273,-373,-442,-159,-517,-402,-444,-363,-218,-92
-263,-227,-416,238,-293,-389,-459,-159,-517,-386,-410,-368,-217,-96
-277,-230,-388,242,-306,-377,-476,-159,-517,-392,-417,-367,-218,-101
-280,-254,-401,306,-318,-374,-472,-159,-507,-409,-447,-366,-215,-96
-268,-251,-426,337,-335,-384,-474,-159,-497,-408,-446,-359,-215,-93
-267,-251,-426,344,-348,-401,-472,-159,-513,-403,-436,-359,-217,-98
-269,-265,-420,380,-361,-402,-482,-159,-513,-403,-443,-378,-218,-98
-261,-276,-428,413,-371,-384,-523,-159,-482,-401,-432,-387,-218,-91
-261,-281,-435,436,-379,-399,-542,-159,-485,-400,-412,-370,-215,-96
-266,-286,-431,483,-390,-422,-525,-159,-508,-402,-435,-362,-210,-110
-258,-332,-294,29,-495,-108,-582,-160,-257,-431,-282,-351,-210,-110
-257,-347,-302,2,-498,-117,-525,-160,-240,-420,-260,-351,-210,-98
-262,-348,-303,9,-493,-119,-516,-160,-245,-415,-278,-351,-210,-93
-266,-346,-308,24,-482,-124,-532,-160,-251,-420,-308,-351,-210,-109
-265,-352,-300,8,-482,-118,-538,-160,-243,-425,-295,-351,-210,-115
-266,-351,-275,6,-490,-117,-558,-160,-241,-424,-264,-351,-210,-105
-265,-343,-292,28,-492,-119,-544,-160,-248,-427,-270,-351,-210,-101
-264,-338,-319,14,-484,-103,-519,-160,-245,-425,-290,-352,-210,-108
-265,-336,-297,-20,-484,-95,-552,-160,-237,-417,-276,-349,-210,-111
-260,-331,-300,-17,-486,-107,-547,-160,-236,-420,-260,-352,-210,-109
-257,-320,-333,-9,-482,-111,-499,-160,-241,-418,-277,-353,-210,-111
-259,-306,-314,-22,-491,-113,-514,-160,-242,-417,-298,-343,-210,-111
-256,-312,-289,-28,-501,-106,-529,-160,-242,-430,-299,-341,-210,-108
-255,-333,-301,-19,-494,-95,-496,-160,-246,-436,-299,-351,-210,-111
-262,-336,-289,-25,-488,-102,-510,-160,-247,-424,-299,-352,-210,-107
-266,-317,-280,-36,-489,-102,-539,-160,-241,-419,-297,-351,-210,-102
-263,-312,-314,-40,-473,-90,-501,-160,-242,-428,-297,-356,-210,-109
-270,-331,-321,-34,-463,-97,-500,-160,-240,-424,-291,-349,-210,-115
-269,-330,-301,-177,-447,-225,-399,-164,-60,-407,-364,-334,-210,-110
-268,-341,-314,-178,-419,-231,-370,-164,-74,-411,-384,-344,-215,-101
-264,-336,-327,-193,-430,-225,-356,-164,-86,-422,-375,-347,-219,-102
-263,-333,-308,-188,-452,-220,-368,-164,-91,-415,-356,-341,-216,-118
-264,-337,-282,-188,-444,-224,-390,-164,-78,-409,-364,-343,-216,-111
-263,-330,-287,-201,-435,-235,-387,-164,-74,-412,-366,-345,-219,-92
-262,-330,-304,-200,-434,-251,-352,-163,-85,-413,-364,-343,-214,-99
-261,-345,-298,-195,-419,-253,-353,-160,-90,-419,-363,-341,-211,-106
-267,-349,-293,-203,-411,-231,-390,-159,-88,-431,-347,-338,-213,-97
-270,-338,-311,-208,-417,-233,-392,-160,-84,-425,-340,-340,-214,-97
-267,-325,-317,-208,-418,-257,-376,-160,-71,-408,-341,-340,-211,-97
-268,-334,-308,-212,-427,-249,-402,-160,-60,-409,-326,-338,-212,-94
-273,-346,-314,-208,-424,-232,-419,-160,-63,-421,-319,-342,-216,-104
-269,-338,-332,-205,-395,-237,-387,-160,-73,-422,-329,-349,-217,-113
-264,-329,-322,-215,-393,-238,-378,-160,-83,-417,-330,-353,-213,-102
-266,-329,-297,-217,-417,-237,-399,-160,-91,-417,-324,-350,-215,-94
-264,-338,-292,-206,-406,-253,-389,-160,-100,-417,-326,-343,-214,-97
-264,-298,-277,-225,-338,-295,-417,-160,-244,-411,-302,-326,-212,-92
-261,-292,-301,-222,-349,-281,-389,-160,-245,-409,-300,-332,-213,-99
-262,-264,-299,-221,-369,-289,-401,-160,-239,-409,-300,-332,-214,-96
-263,-265,-296,-223,-339,-307,-416,-160,-239,-411,-299,-331,-215,-90
-263,-280,-324,-233,-306,-298,-387,-160,-247,-412,-298,-332,-218,-94
-264,-271,-333,-216,-339,-286,-388,-160,-241,-411,-314,-326,-221,-98
-262,-269,-309,-196,-372,-285,-430,-160,-224,-408,-316,-324,-220,-94
-263,-272,-325,-217,-343,-281,-416,-160,-226,-410,-294,-330,-216,-91
-264,-269,-346,-230,-311,-298,-390,-160,-249,-409,-291,-334,-213,-94
-264,-275,-315,-203,-325,-320,-413,-160,-252,-406,-300,-331,-213,-97
-261,-277,-303,-201,-333,-307,-427,-160,-233,-407,-294,-332,-213,-93
-262,-270,-337,-230,-309,-296,-410,-160,-224,-406,-283,-333,-214,-91
-265,-291,-349,-235,-286,-320,-404,-160,-223,-405,-259,-330,-213,-94
-264,-313,-346,-239,-270,-330,-422,-160,-218,-406,-222,-336,-214,-93
-260,-284,-365,-256,-262,-322,-429,-160,-213,-407,-221,-344,-217,-91
-261,-273,-372,-256,-263,-334,-429,-160,-212,-409,-241,-341,-219,-95
-264,-312,-356,-272,-243,-343,-438,-160,-212,-410,-221,-338,-215,-97
-270,-306,-495,-325,-121,-297,-441,-164,-193,-411,-179,-362,-222,-100
-268,-300,-475,-334,-97,-307,-437,-164,-197,-414,-196,-368,-222,-100
-260,-306,-464,-321,-97,-334,-434,-164,-195,-413,-182,-376,-222,-92
-263,-306,-479,-324,-105,-323,-447,-164,-181,-407,-170,-386,-221,-90
-276,-302,-499,-338,-110,-286,-435,-164,-173,-406,-177,-393,-220,-95
-274,-309,-500,-338,-107,-289,-402,-164,-185,-413,-194,-381,-221,-97
-258,-307,-454,-326,-113,-323,-435,-164,-202,-416,-213,-356,-220,-96
-259,-306,-415,-326,-122,-319,-449,-164,-211,-413,-230,-349,-217,-96
-267,-334,-412,-332,-109,-310,-378,-164,-233,-414,-238,-355,-217,-97
-264,-356,-405,-324,-95,-343,-351,-164,-257,-419,-236,-354,-216,-98
-260,-333,-400,-321,-118,-347,-398,-164,-232,-417,-233,-352,-216,-97
-265,-305,-434,-326,-144,-296,-424,-164,-177,-411,-247,-368,-221,-94
-267,-312,-466,-319,-144,-268,-433,-164,-155,-407,-257,-385,-224,-94
-266,-313,-455,-327,-138,-289,-455,-164,-158,-406,-231,-386,-221,-95
-274,-306,-437,-348,-118,-311,-447,-164,-175,-411,-197,-382,-218,-97
-276,-316,-445,-339,-106,-312,-418,-164,-199,-414,-203,-371,-218,-99
-262,-278,-333,-257,-278,-315,-401,-164,-216,-411,-331,-338,-216,-93
-262,-292,-326,-240,-261,-318,-412,-164,-217,-413,-319,-344,-217,-91
-265,-290,-332,-243,-255,-345,-400,-164,-234,-410,-317,-349,-217,-88
-262,-275,-327,-276,-251,-348,-384,-164,-240,-412,-323,-353,-213,-88
-260,-275,-322,-268,-263,-324,-394,-164,-217,-414,-327,-357,-216,-88
-267,-287,-334,-238,-268,-310,-391,-164,-215,-415,-328,-358,-219,-90
-270,-290,-340,-241,-262,-312,-389,-164,-236,-413,-328,-350,-216,-94
-263,-273,-342,-251,-263,-315,-422,-164,-229,-410,-320,-330,-216,-93
-267,-261,-359,-242,-257,-318,-426,-164,-209,-413,-316,-321,-222,-90
-275,-267,-373,-239,-250,-318,-387,-164,-213,-415,-329,-323,-219,-92
-271,-271,-364,-249,-257,-316,-394,-164,-216,-409,-334,-322,-214,-93
-270,-271,-356,-250,-244,-319,-414,-164,-212,-414,-330,-334,-216,-92
-274,-272,-356,-248,-214,-316,-393,-164,-225,-421,-344,-353,-218,-92
-266,-265,-340,-260,-227,-291,-399,-164,-230,-414,-363,-357,-216,-90
-258,-262,-336,-262,-251,-271,-422,-164,-217,-407,-367,-354,-215,-90
-262,-264,-347,-246,-248,-296,-407,-164,-211,-411,-379,-351,-215,-91
-262,-253,-332,-192,-339,-279,-485,-164,-240,-411,-331,-321,-211,-98
-259,-248,-335,-222,-326,-303,-473,-164,-241,-409,-325,-320,-213,-100
-261,-250,-345,-245,-321,-314,-443,-164,-242,-407,-319,-337,-215,-94
-263,-259,-337,-230,-334,-298,-447,-164,-228,-409,-327,-351,-214,-94
-263,-272,-327,-238,-343,-271,-449,-164,-215,-411,-336,-333,-219,-94
-263,-280,-321,-273,-327,-291,-436,-164,-228,-412,-326,-312,-218,-80
-264,-276,-302,-271,-314,-332,-439,-164,-235,-413,-310,-310,-212,-73
-264,-264,-307,-246,-336,-316,-450,-164,-217,-413,-319,-312,-212,-84
-266,-268,-349,-229,-357,-280,-444,-164,-209,-409,-340,-316,-214,-86
-268,-284,-349,-219,-333,-297,-436,-164,-221,-410,-335,-323,-213,-80
-263,-269,-298,-220,-316,-333,-446,-164,-212,-414,-326,-332,-213,-88
-261,-255,-287,-231,-335,-322,-448,-164,-192,-413,-333,-344,-215,-94
-261,-286,-315,-255,-329,-307,-418,-164,-199,-412,-335,-344,-213,-85
-263,-308,-318,-265,-315,-326,-403,-164,-208,-412,-322,-327,-214,-79
-263,-297,-313,-258,-318,-330,-433,-164,-196,-411,-300,-319,-220,-85
-270,-257,-228,-153,-436,-209,-338,-164,-311,-434,-531,-306,-216,-93
-263,-251,-254,-130,-435,-220,-323,-164,-308,-410,-518,-310,-214,-89
-259,-250,-261,-127,-434,-219,-311,-164,-308,-405,-522,-310,-212,-93
-271,-248,-239,-146,-433,-215,-319,-164,-311,-424,-518,-312,-214,-87
-277,-246,-229,-138,-438,-222,-326,-164,-310,-432,-523,-312,-214,-77
-265,-247,-235,-123,-441,-225,-323,-164,-309,-419,-548,-302,-214,-86
-259,-250,-241,-140,-431,-222,-314,-164,-310,-412,-541,-303,-219,-92
-265,-258,-241,-160,-431,-222,-322,-164,-307,-416,-511,-304,-217,-84
-262,-253,-234,-141,-443,-232,-356,-164,-308,-414,-508,-301,-212,-86
-257,-236,-239,-107,-439,-231,-355,-163,-308,-411,-518,-310,-212,-96
-263,-252,-255,-112,-423,-223,-321,-162,-307,-411,-522,-317,-214,-94
-264,-274,-241,-148,-424,-242,-332,-165,-312,-417,-514,-310,-215,-90
-260,-256,-224,-147,-431,-261,-345,-164,-333,-430,-513,-307,-215,-89
-261,-245,-235,-111,-427,-249,-313,-161,-353,-427,-526,-312,-214,-86
-261,-255,-236,-107,-426,-243,-309,-175,-356,-411,-510,-310,-216,-81
-264,-291,-286,-194,-398,-63,-418,-186,-390,-417,-426,-313,-218,-92
-265,-306,-276,-198,-397,-47,-393,-181,-401,-423,-446,-313,-217,-88
-264,-305,-263,-199,-397,-35,-373,-160,-420,-426,-472,-313,-211,-79
-264,-296,-274,-203,-400,-31,-401,-161,-422,-413,-449,-313,-211,-84
-265,-303,-297,-211,-390,-28,-417,-168,-422,-417,-408,-313,-220,-94
-263,-319,-290,-212,-366,-46,-376,-162,-442,-438,-393,-314,-227,-93
-262,-319,-272,-207,-361,-63,-375,-162,-444,-440,-404,-313,-224,-92
-263,-300,-278,-203,-379,-37,-429,-166,-416,-425,-426,-311,-217,-92
-263,-292,-297,-195,-380,-13,-446,-165,-394,-428,-429,-317,-216,-93
-263,-301,-302,-202,-361,-21,-438,-165,-384,-437,-423,-324,-217,-97
-266,-303,-304,-227,-364,-18,-446,-165,-366,-425,-426,-323,-216,-97
-266,-302,-309,-244,-366,-4,-441,-165,-355,-414,-421,-322,-215,-91
-264,-307,-304,-240,-351,-12,-433,-165,-360,-422,-419,-324,-217,-93
-263,-314,-297,-240,-348,-17,-443,-165,-361,-424,-435,-321,-222,-95
-263,-311,-295,-246,-356,-9,-444,-165,-350,-411,-456,-319,-223,-91
-265,-284,-259,-193,-266,-252,-401,-165,-430,-412,-378,-314,-218,-87
-267,-287,-246,-193,-264,-281,-387,-165,-421,-411,-403,-310,-214,-90
-266,-272,-264,-181,-303,-287,-385,-165,-400,-409,-397,-309,-212,-92
-262,-248,-273,-175,-320,-254,-394,-165,-403,-409,-386,-312,-214,-91
-261,-256,-255,-179,-303,-243,-387,-165,-421,-411,-401,-311,-215,-89
-265,-279,-241,-181,-300,-259,-380,-165,-432,-412,-420,-310,-215,-93
-266,-277,-246,-171,-307,-268,-380,-165,-429,-414,-427,-307,-217,-97
-272,-266,-256,-175,-305,-268,-380,-165,-423,-412,-408,-305,-217,-93
-274,-270,-259,-193,-312,-262,-382,-165,-427,-410,-387,-312,-216,-87
-272,-272,-268,-178,-322,-260,-393,-165,-422,-409,-392,-317,-217,-90
-266,-259,-273,-156,-313,-263,-415,-165,-407,-410,-395,-310,-216,-95
-267,-252,-261,-164,-300,-255,-421,-165,-409,-412,-391,-308,-214,-92
-272,-258,-264,-184,-293,-255,-398,-165,-426,-411,-398,-312,-217,-90
-275,-267,-315,-209,-297,-271,-449,-163,-301,-409,-352,-326,-218,-94
-257,-270,-295,-227,-300,-270,-445,-167,-306,-412,-352,-325,-220,-93
-258,-269,-292,-238,-287,-287,-405,-165,-329,-411,-360,-324,-217,-94
-279,-268,-294,-245,-284,-296,-381,-163,-345,-410,-358,-327,-215,-92
-277,-280,-281,-234,-296,-279,-392,-174,-342,-411,-355,-323,-221,-91
-260,-275,-268,-219,-301,-271,-419,-194,-334,-411,-362,-315,-221,-91
-262,-264,-287,-227,-298,-283,-413,-192,-343,-411,-367,-309,-215,-92
-272,-277,-301,-237,-302,-289,-391,-176,-361,-409,-349,-310,-216,-92
-270,-288,-284,-213,-313,-292,-412,-179,-370,-409,-332,-318,-220,-92
-261,-277,-281,-196,-316,-291,-422,-190,-360,-409,-350,-321,-221,-92
-259,-267,-289,-218,-307,-282,-397,-188,-355,-409,-372,-313,-220,-92
-263,-269,-276,-231,-302,-283,-396,-185,-367,-409,-365,-309,-218,-93
-264,-273,-269,-233,-303,-291,-397,-187,-374,-411,-356,-314,-220,-92
-260,-273,-289,-241,-304,-287,-375,-186,-372,-412,-354,-314,-221,-91
-264,-283,-291,-229,-295,-322,-386,-153,-424,-400,-287,-311,-221,-92
-264,-278,-292,-222,-279,-317,-386,-172,-411,-400,-292,-313,-222,-95
-262,-276,-300,-193,-276,-319,-399,-193,-419,-406,-309,-311,-221,-94
-265,-274,-298,-193,-305,-321,-398,-184,-438,-409,-299,-310,-220,-92
-264,-280,-290,-212,-303,-319,-370,-185,-451,-409,-274,-317,-219,-91
-262,-285,-281,-225,-271,-314,-379,-186,-441,-408,-280,-323,-217,-90
-269,-277,-286,-231,-266,-317,-390,-163,-424,-407,-308,-322,-220,-92
-269,-273,-303,-223,-293,-314,-388,-162,-422,-405,-292,-322,-220,-92
-259,-283,-301,-208,-301,-289,-413,-186,-428,-408,-267,-326,-215,-92
-257,-287,-293,-210,-293,-274,-410,-190,-423,-409,-295,-325,-218,-92
-266,-275,-295,-226,-300,-287,-373,-184,-423,-405,-313,-323,-224,-94
-268,-267,-299,-229,-310,-291,-389,-188,-428,-408,-287,-326,-219,-94
-264,-271,-315,-218,-306,-277,-405,-194,-420,-412,-282,-323,-214,-93
-263,-273,-316,-215,-307,-272,-391,-188,-420,-405,-310,-311,-217,-92
-263,-262,-252,-178,-352,-229,-336,-170,-486,-407,-450,-312,-218,-95
-262,-243,-264,-183,-357,-232,-320,-157,-490,-405,-452,-312,-216,-92
-260,-254,-251,-179,-364,-219,-342,-163,-511,-401,-437,-312,-212,-91
-261,-277,-231,-181,-359,-215,-359,-178,-507,-397,-419,-313,-217,-91
-261,-272,-236,-180,-357,-220,-350,-186,-497,-402,-418,-311,-222,-92
-261,-253,-261,-175,-358,-218,-351,-185,-510,-408,-417,-313,-219,-93
-263,-263,-268,-173,-357,-216,-354,-186,-513,-403,-408,-322,-211,-88
-264,-275,-256,-190,-362,-222,-334,-189,-495,-404,-395,-326,-210,-87
-262,-269,-249,-210,-366,-236,-314,-185,-495,-409,-395,-318,-215,-93
-259,-272,-244,-190,-359,-251,-317,-181,-517,-406,-413,-312,-214,-93
-260,-281,-239,-170,-354,-253,-324,-191,-526,-406,-417,-308,-213,-91
-261,-280,-252,-192,-349,-234,-320,-185,-511,-409,-406,-306,-218,-94
-260,-273,-257,-206,-342,-225,-335,-169,-502,-404,-418,-316,-219,-94
-311,-292,-264,-231,-161,-296,-285,-189,-464,-437,-359,-324,-231,-108
-311,-281,-251,-245,-159,-280,-305,-189,-450,-437,-358,-323,-220,-110
-295,-278,-223,-241,-167,-287,-322,-187,-450,-436,-375,-324,-227,-110
-285,-284,-224,-207,-192,-292,-308,-188,-464,-434,-422,-324,-232,-101
-292,-296,-239,-196,-205,-295,-288,-189,-483,-437,-418,-323,-222,-96
-284,-309,-234,-212,-201,-292,-305,-188,-490,-429,-397,-326,-219,-92
-263,-313,-228,-223,-199,-302,-328,-185,-483,-411,-415,-334,-222,-88
-259,-307,-251,-227,-217,-321,-313,-191,-491,-405,-428,-333,-220,-92
-262,-299,-259,-233,-225,-322,-311,-186,-489,-412,-417,-330,-219,-93
-261,-304,-244,-248,-216,-315,-323,-171,-471,-407,-414,-333,-220,-81
-259,-316,-243,-267,-216,-317,-307,-176,-483,-398,-417,-329,-215,-81
-263,-307,-250,-267,-221,-324,-289,-192,-490,-403,-422,-321,-217,-94
-265,-261,-327,-204,-332,-259,-371,-193,-399,-404,-326,-322,-220,-94
-264,-259,-300,-217,-335,-256,-399,-177,-392,-404,-327,-325,-218,-94
-268,-260,-296,-226,-351,-245,-413,-156,-386,-409,-328,-325,-219,-94
-277,-262,-313,-208,-362,-247,-387,-167,-390,-414,-323,-323,-219,-93
-275,-260,-306,-182,-359,-256,-374,-191,-405,-413,-340,-323,-219,-94
-271,-254,-284,-193,-346,-264,-365,-188,-427,-408,-358,-322,-219,-93
-272,-261,-284,-227,-337,-269,-349,-181,-429,-407,-337,-321,-219,-93
-271,-272,-293,-230,-343,-266,-372,-191,-411,-408,-299,-322,-219,-94
-269,-266,-296,-208,-354,-256,-411,-193,-398,-406,-299,-322,-219,-97
-268,-254,-306,-203,-350,-244,-397,-187,-391,-403,-340,-322,-219,-97
-262,-252,-320,-210,-344,-228,-373,-190,-390,-406,-364,-321,-219,-97
-260,-250,-321,-209,-354,-220,-385,-192,-387,-408,-361,-320,-219,-98
-269,-253,-318,-194,-363,-222,-395,-190,-393,-405,-359,-319,-219,-93
-261,-247,-290,-185,-394,-240,-408,-160,-362,-389,-445,-324,-217,-96
-259,-251,-302,-183,-384,-235,-403,-183,-362,-400,-441,-325,-219,-97
-261,-264,-315,-184,-372,-247,-380,-192,-362,-405,-419,-321,-220,-99
-264,-268,-306,-173,-372,-261,-359,-189,-377,-401,-425,-323,-219,-92
-264,-251,-288,-180,-372,-255,-347,-190,-395,-399,-459,-324,-222,-90
-261,-247,-293,-184,-373,-246,-346,-190,-404,-400,-453,-323,-224,-97
-261,-257,-305,-170,-387,-253,-358,-191,-400,-402,-434,-326,-218,-98
-262,-252,-290,-173,-394,-254,-387,-191,-383,-405,-441,-326,-216,-95
-260,-246,-281,-189,-387,-241,-409,-191,-378,-403,-429,-321,-220,-95
-260,-267,-310,-189,-374,-243,-397,-191,-390,-399,-393,-319,-216,-95
-261,-271,-332,-192,-365,-257,-373,-190,-400,-403,-382,-322,-217,-94
-261,-249,-324,-211,-363,-259,-379,-192,-388,-405,-399,-324,-222,-96
-262,-280,-326,-262,-367,-139,-384,-189,-378,-401,-410,-342,-220,-96
-266,-288,-319,-267,-360,-145,-389,-189,-366,-402,-416,-336,-220,-102
-261,-290,-323,-271,-360,-157,-387,-189,-341,-400,-409,-327,-221,-95
-260,-299,-327,-272,-350,-165,-381,-189,-347,-399,-409,-328,-223,-90
-264,-311,-320,-265,-348,-163,-380,-189,-374,-401,-416,-332,-217,-97
-264,-303,-319,-241,-368,-164,-381,-189,-390,-393,-417,-331,-221,-99
-263,-284,-320,-233,-369,-171,-381,-190,-398,-377,-402,-330,-233,-94
-264,-276,-316,-253,-347,-169,-385,-189,-401,-383,-391,-330,-228,-94
-263,-286,-325,-257,-333,-155,-380,-189,-398,-402,-392,-333,-215,-91
-263,-295,-336,-233,-336,-150,-376,-190,-404,-404,-393,-340,-219,-95
-262,-291,-325,-224,-351,-154,-395,-189,-394,-399,-391,-346,-225,-107
-262,-276,-313,-235,-358,-148,-412,-185,-373,-408,-395,-341,-220,-106
-259,-280,-304,-208,-323,-290,-375,-187,-437,-397,-343,-321,-221,-92
-258,-282,-298,-207,-321,-290,-384,-187,-441,-397,-330,-324,-220,-91
-261,-279,-298,-199,-330,-294,-387,-187,-442,-400,-343,-329,-220,-104
-263,-282,-297,-194,-336,-289,-382,-187,-422,-402,-396,-329,-217,-107
-260,-278,-292,-205,-333,-282,-400,-187,-418,-400,-385,-324,-215,-99
-258,-273,-299,-222,-335,-290,-420,-187,-431,-398,-314,-320,-218,-107
-260,-275,-306,-226,-334,-299,-410,-187,-425,-403,-306,-319,-219,-118
-262,-274,-304,-222,-333,-300,-393,-187,-408,-399,-336,-320,-219,-108
-262,-271,-296,-218,-341,-300,-422,-187,-403,-387,-325,-319,-222,-97
-261,-273,-287,-218,-337,-299,-456,-187,-403,-383,-320,-318,-221,-97
-262,-271,-293,-219,-320,-296,-424,-187,-402,-392,-351,-320,-219,-101
-263,-267,-304,-210,-322,-290,-389,-187,-402,-390,-383,-320,-222,-110
-263,-267,-295,-198,-339,-282,-409,-187,-396,-392,-396,-318,-222,-115
-261,-280,-258,-237,-291,-347,-326,-191,-463,-403,-383,-321,-225,-104
-263,-286,-283,-225,-294,-349,-317,-191,-451,-404,-360,-317,-223,-106
-261,-287,-295,-206,-288,-348,-314,-191,-465,-403,-354,-313,-220,-92
-259,-282,-283,-224,-288,-350,-326,-191,-454,-402,-358,-319,-221,-91
-264,-282,-267,-243,-292,-352,-329,-191,-436,-406,-360,-324,-223,-106
-264,-289,-270,-226,-297,-352,-312,-191,-454,-407,-350,-322,-221,-106
-260,-289,-288,-212,-292,-356,-313,-191,-460,-401,-333,-322,-220,-97
-262,-290,-297,-226,-274,-351,-328,-191,-434,-399,-325,-320,-221,-107
-263,-297,-296,-236,-266,-346,-326,-191,-433,-403,-329,-320,-221,-116
-260,-288,-293,-239,-273,-352,-320,-191,-452,-404,-327,-329,-221,-99
-261,-273,-282,-240,-283,-358,-314,-191,-455,-402,-326,-329,-220,-91
-264,-289,-271,-239,-290,-359,-304,-191,-459,-403,-329,-320,-221,-108
-271,-303,-274,-257,-271,-316,-278,-191,-518,-402,-341,-322,-224,-111
-270,-292,-270,-262,-272,-326,-262,-191,-526,-402,-351,-322,-223,-111
-270,-280,-280,-255,-274,-311,-287,-191,-499,-403,-354,-322,-224,-111
-266,-282,-294,-239,-270,-305,-299,-191,-480,-403,-353,-322,-231,-111
-269,-284,-296,-243,-272,-309,-286,-191,-495,-403,-349,-321,-232,-111
-275,-280,-304,-267,-277,-298,-290,-191,-498,-403,-328,-321,-229,-111
-270,-274,-315,-270,-271,-287,-314,-191,-478,-404,-322,-322,-227,-111
-260,-271,-303,-244,-274,-288,-327,-191,-484,-401,-353,-323,-222,-111
-263,-270,-295,-218,-299,-292,-321,-191,-514,-403,-367,-320,-220,-111
-278,-262,-298,-212,-305,-291,-326,-191,-522,-399,-348,-324,-222,-111
-281,-262,-302,-225,-279,-295,-323,-191,-515,-385,-334,-340,-223,-111
-262,-276,-315,-239,-267,-298,-295,-191,-511,-387,-322,-342,-230,-111
-259,-282,-264,-336,-302,-318,-315,-191,-512,-382,-288,-333,-220,-110
-258,-272,-280,-319,-311,-318,-325,-191,-492,-383,-300,-338,-221,-108
-261,-268,-286,-308,-304,-311,-328,-191,-474,-378,-312,-349,-217,-110
-261,-279,-294,-298,-300,-304,-317,-191,-496,-390,-300,-353,-217,-111
-259,-289,-321,-292,-298,-293,-301,-191,-514,-402,-290,-353,-223,-110
-260,-287,-333,-290,-283,-285,-309,-191,-499,-404,-299,-351,-224,-110
-263,-281,-322,-288,-268,-293,-324,-191,-484,-401,-322,-345,-222,-110
-264,-280,-307,-299,-267,-309,-325,-191,-486,-392,-328,-337,-225,-110
-262,-283,-287,-300,-273,-320,-318,-191,-488,-379,-329,-339,-227,-110
-262,-283,-269,-289,-268,-318,-290,-191,-484,-377,-360,-343,-228,-110
-261,-285,-265,-312,-263,-325,-269,-191,-485,-386,-354,-336,-230,-110
-263,-297,-274,-329,-261,-337,-279,-191,-487,-390,-316,-333,-228,-110
-267,-270,-313,-262,-317,-298,-341,-191,-392,-386,-348,-351,-235,-113
-265,-285,-317,-274,-328,-292,-342,-191,-401,-378,-313,-351,-238,-113
-263,-281,-318,-265,-333,-292,-347,-191,-392,-389,-352,-355,-233,-113
-264,-267,-330,-248,-330,-290,-343,-191,-392,-397,-373,-352,-226,-113
-262,-267,-327,-256,-324,-282,-349,-191,-401,-387,-353,-340,-232,-113
-262,-272,-315,-262,-327,-274,-364,-191,-400,-391,-359,-343,-232,-113
-263,-274,-324,-255,-336,-272,-355,-191,-397,-403,-372,-356,-221,-113
-260,-269,-332,-259,-339,-279,-343,-191,-397,-396,-355,-354,-220,-113
-264,-263,-328,-271,-331,-283,-352,-191,-390,-382,-356,-349,-224,-113
-269,-271,-334,-270,-328,-277,-357,-191,-388,-377,-363,-353,-225,-113
-262,-285,-339,-269,-332,-275,-347,-191,-394,-386,-343,-355,-223,-113
-265,-288,-324,-272,-307,-303,-381,-191,-317,-395,-369,-353,-221,-113
-264,-291,-325,-277,-309,-294,-385,-191,-327,-403,-377,-352,-227,-113
-263,-309,-330,-283,-292,-299,-382,-191,-319,-396,-377,-351,-231,-113
-261,-312,-325,-277,-292,-311,-375,-191,-324,-387,-350,-354,-226,-113
-260,-289,-321,-271,-308,-303,-382,-191,-323,-387,-355,-355,-218,-113
-261,-274,-332,-271,-307,-278,-386,-191,-305,-392,-385,-354,-223,-113
-262,-280,-341,-272,-304,-282,-377,-191,-310,-398,-378,-355,-230,-113
-260,-284,-331,-272,-307,-306,-375,-191,-325,-389,-373,-354,-230,-113
-261,-277,-321,-265,-316,-305,-383,-191,-319,-383,-397,-351,-231,-113
-261,-282,-332,-259,-329,-297,-387,-191,-318,-397,-399,-350,-228,-113
-259,-291,-344,-270,-330,-297,-381,-191,-324,-403,-382,-351,-221,-113
-259,-281,-336,-273,-329,-295,-381,-191,-324,-399,-397,-351,-222,-113
-259,-317,-344,-253,-313,-320,-379,-191,-315,-388,-355,-355,-222,-114
-261,-312,-330,-250,-329,-319,-402,-191,-309,-376,-337,-355,-230,-115
-260,-308,-338,-250,-336,-322,-381,-191,-302,-376,-327,-355,-235,-115
-260,-317,-353,-252,-331,-321,-352,-191,-305,-387,-342,-355,-236,-112
-260,-326,-345,-249,-319,-316,-365,-191,-311,-405,-364,-355,-238,-117
-260,-312,-322,-226,-319,-318,-395,-191,-312,-401,-366,-355,-236,-122
-260,-300,-335,-207,-335,-317,-393,-191,-306,-377,-361,-355,-232,-114
-260,-312,-361,-220,-334,-308,-378,-191,-301,-379,-357,-355,-224,-108
-260,-318,-351,-236,-317,-312,-384,-191,-298,-388,-361,-355,-227,-113
-260,-306,-348,-237,-320,-313,-379,-191,-300,-376,-365,-355,-235,-115
-261,-307,-360,-236,-330,-302,-382,-191,-302,-376,-354,-355,-236,-112
-259,-316,-320,-222,-370,-307,-350,-191,-308,-382,-429,-350,-235,-120
-258,-311,-327,-222,-381,-298,-352,-191,-299,-382,-422,-351,-225,-118
-260,-306,-328,-232,-377,-281,-350,-191,-279,-379,-452,-349,-230,-116
-258,-301,-330,-222,-381,-265,-365,-191,-283,-378,-461,-351,-240,-113
-258,-297,-330,-209,-402,-256,-374,-191,-288,-382,-431,-354,-239,-116
-263,-305,-336,-219,-404,-243,-377,-191,-284,-382,-415,-352,-235,-123
-260,-312,-345,-238,-389,-213,-397,-191,-277,-387,-416,-350,-238,-120
-257,-309,-347,-241,-413,-184,-404,-191,-273,-392,-418,-351,-243,-117
-260,-319,-347,-231,-437,-165,-384,-191,-286,-393,-415,-352,-240,-124
-263,-338,-357,-236,-395,-147,-374,-191,-313,-399,-414,-355,-243,-121
-262,-343,-367,-261,-335,-143,-384,-191,-325,-405,-412,-357,-242,-113
-261,-347,-362,-279,-308,-150,-389,-191,-329,-403,-412,-356,-243,-121
-261,-359,-333,-302,-257,-316,-380,-194,-240,-391,-390,-362,-225,-122
-262,-365,-350,-292,-244,-324,-359,-194,-248,-385,-397,-362,-219,-123
-263,-365,-358,-297,-234,-326,-358,-194,-243,-384,-398,-362,-232,-120
-263,-356,-367,-298,-251,-318,-383,-194,-208,-391,-400,-361,-242,-118
-263,-361,-373,-296,-263,-330,-385,-194,-184,-391,-405,-361,-231,-121
-263,-358,-370,-303,-252,-351,-374,-194,-185,-383,-400,-362,-231,-123
-262,-347,-354,-307,-251,-350,-389,-194,-180,-394,-392,-360,-244,-123
-260,-362,-345,-294,-258,-344,-388,-194,-169,-411,-393,-362,-245,-123
-262,-372,-351,-296,-259,-353,-370,-194,-168,-390,-392,-367,-240,-125
-264,-349,-353,-321,-260,-357,-380,-194,-163,-380,-391,-372,-239,-126
-265,-345,-348,-319,-263,-346,-391,-194,-150,-401,-391,-371,-241,-122
-262,-322,-350,-291,-250,-439,-358,-194,-303,-408,-344,-353,-249,-120
-263,-313,-336,-298,-232,-413,-366,-194,-299,-393,-371,-355,-240,-114
-262,-331,-326,-289,-234,-404,-378,-194,-304,-379,-361,-354,-237,-109
-263,-351,-324,-295,-232,-424,-356,-194,-318,-391,-337,-354,-233,-114
-263,-354,-304,-324,-225,-448,-340,-194,-308,-403,-329,-354,-228,-115
-263,-343,-307,-341,-236,-446,-355,-194,-281,-399,-334,-354,-238,-109
-262,-326,-335,-323,-247,-426,-355,-194,-272,-397,-355,-354,-247,-114
-262,-326,-343,-285,-249,-411,-353,-194,-275,-402,-368,-355,-240,-123
-263,-331,-342,-262,-256,-398,-379,-194,-278,-402,-358,-354,-238,-123
-261,-322,-344,-261,-255,-384,-392,-194,-289,-401,-353,-352,-242,-121
-264,-326,-341,-264,-242,-373,-365,-194,-309,-403,-358,-360,-240,-121
-267,-345,-334,-267,-236,-362,-344,-194,-314,-398,-362,-368,-242,-119
-260,-283,-325,-282,-427,-291,-390,-194,-252,-402,-313,-361,-234,-121
-261,-279,-332,-281,-415,-287,-362,-194,-260,-407,-316,-376,-239,-123
-262,-288,-331,-269,-416,-297,-344,-194,-261,-395,-342,-383,-244,-126
-260,-295,-329,-262,-429,-298,-357,-194,-270,-381,-358,-365,-240,-124
-259,-287,-328,-269,-436,-293,-353,-194,-279,-395,-355,-353,-239,-120
-259,-280,-324,-272,-423,-299,-346,-194,-283,-407,-355,-362,-243,-121
-261,-282,-329,-270,-414,-292,-368,-194,-280,-401,-363,-367,-237,-123
-261,-285,-351,-263,-423,-278,-386,-194,-270,-399,-349,-362,-235,-123
-260,-282,-356,-257,-437,-286,-384,-194,-261,-405,-324,-363,-242,-123
-261,-273,-335,-257,-432,-291,-380,-194,-256,-407,-345,-364,-243,-124
-260,-275,-341,-210,-368,-320,-389,-194,-280,-393,-426,-367,-244,-121
-260,-268,-338,-201,-378,-317,-412,-194,-278,-405,-413,-373,-244,-121
-259,-268,-350,-194,-374,-319,-417,-194,-276,-401,-392,-368,-244,-123
-261,-267,-350,-189,-371,-314,-400,-194,-290,-400,-375,-360,-243,-124
-260,-254,-347,-176,-380,-290,-383,-194,-305,-405,-391,-361,-241,-126
-266,-243,-350,-154,-382,-279,-377,-194,-304,-393,-429,-365,-241,-124
-273,-244,-342,-158,-376,-287,-382,-194,-289,-378,-424,-363,-244,-123
-273,-246,-332,-182,-375,-289,-394,-194,-276,-384,-386,-363,-247,-130
-275,-238,-327,-190,-376,-287,-398,-194,-271,-386,-389,-364,-244,-136
-277,-230,-329,-202,-384,-294,-385,-194,-266,-377,-402,-361,-243,-134
-278,-244,-342,-217,-398,-296,-375,-194,-263,-384,-371,-363,-245,-134
-260,-249,-337,-229,-379,-255,-391,-194,-333,-388,-435,-375,-242,-117
-258,-251,-323,-277,-362,-259,-419,-194,-333,-380,-413,-373,-238,-122
-259,-246,-321,-305,-355,-276,-390,-194,-330,-380,-418,-366,-240,-126
-261,-250,-331,-300,-374,-290,-347,-194,-322,-380,-424,-366,-242,-120
-258,-261,-324,-285,-396,-300,-364,-194,-335,-377,-402,-362,-239,-116
-257,-254,-306,-260,-396,-296,-387,-194,-355,-380,-427,-353,-238,-119
-259,-247,-294,-246,-386,-282,-378,-194,-347,-389,-471,-355,-236,-121
-257,-264,-294,-257,-380,-281,-380,-194,-346,-390,-450,-365,-234,-123
-258,-278,-306,-251,-369,-289,-376,-194,-371,-395,-411,-365,-239,-124
-259,-268,-321,-230,-351,-294,-352,-194,-376,-404,-420,-363,-242,-119
-258,-262,-323,-241,-338,-291,-351,-194,-366,-403,-432,-364,-239,-119
-259,-275,-365,-291,-361,-280,-356,-194,-330,-378,-373,-370,-239,-121
-257,-282,-347,-276,-366,-283,-404,-194,-315,-377,-359,-376,-238,-122
-258,-278,-337,-268,-370,-281,-431,-194,-321,-379,-348,-372,-239,-125
-260,-267,-364,-266,-375,-275,-384,-194,-333,-378,-366,-379,-242,-125
-258,-265,-372,-250,-379,-276,-360,-194,-327,-375,-393,-385,-243,-123
-258,-268,-354,-244,-382,-282,-383,-194,-325,-379,-389,-370,-243,-123
-260,-268,-345,-255,-375,-289,-385,-194,-342,-382,-358,-360,-244,-125
-262,-266,-343,-248,-371,-290,-374,-194,-346,-379,-352,-364,-243,-124
-263,-266,-328,-235,-383,-284,-386,-194,-323,-382,-372,-362,-240,-124
-261,-272,-321,-236,-398,-287,-386,-194,-312,-383,-360,-360,-242,-126
-264,-261,-312,-197,-404,-259,-352,-201,-397,-384,-389,-362,-243,-127
-264,-251,-307,-202,-399,-254,-386,-201,-402,-391,-393,-360,-243,-124
-263,-251,-303,-210,-385,-252,-384,-201,-407,-390,-380,-369,-243,-124
-262,-270,-316,-215,-369,-273,-348,-201,-418,-386,-359,-383,-243,-126
-263,-279,-316,-234,-365,-291,-342,-201,-423,-396,-352,-385,-243,-126
-264,-278,-295,-244,-371,-285,-357,-201,-427,-405,-351,-379,-243,-124
-261,-282,-284,-222,-377,-282,-348,-201,-437,-399,-358,-370,-242,-122
-259,-281,-269,-204,-375,-290,-338,-201,-449,-399,-387,-363,-241,-122
-261,-274,-268,-207,-380,-291,-335,-201,-448,-403,-402,-362,-242,-125
-262,-268,-301,-212,-396,-284,-318,-201,-434,-388,-390,-361,-243,-127
-261,-256,-316,-205,-404,-277,-325,-201,-424,-385,-396,-361,-243,-125
-275,-276,-308,-269,-351,-215,-338,-201,-323,-407,-414,-379,-247,-143
-280,-289,-297,-248,-363,-243,-338,-201,-341,-400,-406,-370,-245,-140
-268,-288,-294,-241,-355,-257,-340,-201,-340,-401,-403,-367,-244,-129
-263,-282,-300,-258,-335,-250,-349,-201,-333,-405,-411,-368,-246,-128
-270,-287,-313,-268,-333,-254,-341,-201,-335,-403,-400,-373,-247,-135
-267,-302,-322,-256,-343,-263,-316,-201,-334,-401,-381,-380,-244,-135
-266,-311,-303,-244,-341,-261,-324,-201,-331,-401,-390,-383,-242,-134
-266,-297,-278,-266,-330,-275,-346,-201,-339,-403,-397,-383,-242,-128
-265,-286,-288,-299,-325,-290,-327,-201,-343,-402,-388,-384,-244,-125
-263,-299,-305,-295,-334,-283,-310,-201,-334,-399,-388,-384,-243,-126
-268,-311,-306,-253,-349,-312,-335,-197,-329,-405,-328,-378,-247,-125
-273,-291,-322,-227,-361,-315,-347,-208,-326,-405,-324,-374,-248,-128
-274,-277,-316,-233,-376,-289,-358,-204,-315,-400,-340,-372,-248,-126
-273,-278,-316,-240,-366,-272,-357,-200,-303,-399,-389,-379,-248,-122
-272,-279,-326,-238,-358,-286,-355,-204,-290,-402,-391,-383,-250,-138
-276,-283,-336,-254,-364,-291,-347,-204,-276,-401,-353,-382,-248,-146
-277,-288,-330,-276,-359,-276,-350,-203,-275,-399,-355,-382,-248,-141
-273,-280,-312,-278,-348,-275,-379,-204,-277,-401,-366,-384,-251,-142
-270,-286,-318,-263,-351,-286,-377,-205,-274,-403,-360,-385,-253,-142
-269,-305,-335,-242,-362,-286,-345,-204,-271,-403,-373,-386,-253,-141
-263,-290,-311,-251,-400,-251,-360,-202,-322,-386,-380,-383,-243,-126
-265,-296,-327,-255,-396,-265,-348,-202,-319,-392,-369,-382,-243,-126
-265,-315,-328,-265,-395,-263,-358,-202,-331,-389,-338,-384,-243,-130
-259,-313,-310,-262,-406,-248,-393,-202,-335,-385,-331,-384,-243,-135
-260,-291,-320,-244,-418,-247,-392,-202,-317,-395,-355,-379,-243,-134
-265,-283,-339,-227,-420,-254,-379,-204,-309,-394,-366,-376,-243,-132
-262,-286,-334,-237,-420,-241,-396,-201,-309,-382,-358,-379,-243,-128
-259,-287,-331,-266,-428,-220,-403,-201,-283,-380,-354,-384,-243,-128
-261,-287,-355,-270,-427,-220,-386,-214,-265,-380,-356,-384,-243,-130
-264,-287,-369,-249,-410,-233,-376,-214,-287,-385,-364,-382,-242,-127
-262,-317,-271,-270,-345,-291,-277,-209,-380,-401,-419,-381,-244,-133
-267,-304,-273,-250,-362,-291,-306,-206,-380,-401,-400,-372,-248,-136
-264,-295,-274,-234,-371,-284,-351,-218,-366,-404,-389,-368,-244,-140
-259,-305,-294,-224,-366,-276,-341,-220,-358,-399,-421,-373,-240,-144
-262,-304,-312,-212,-369,-269,-332,-217,-363,-389,-432,-382,-242,-142
-268,-285,-303,-205,-380,-261,-361,-214,-356,-385,-405,-387,-243,-141
-267,-276,-291,-217,-390,-253,-362,-204,-340,-391,-406,-381,-244,-144
-264,-283,-285,-240,-395,-255,-348,-201,-337,-390,-428,-376,-247,-141
-264,-282,-286,-241,-396,-256,-367,-206,-338,-381,-426,-375,-246,-143
-267,-272,-307,-218,-393,-251,-374,-203,-333,-387,-407,-375,-244,-146
-260,-257,-336,-220,-368,-285,-412,-260,-320,-376,-417,-364,-245,-143
-261,-264,-321,-216,-366,-284,-411,-265,-339,-377,-413,-362,-245,-145
-261,-262,-328,-212,-357,-282,-371,-263,-349,-381,-437,-371,-243,-140
-260,-268,-329,-204,-347,-285,-370,-261,-342,-381,-449,-384,-243,-142
-261,-286,-311,-215,-347,-288,-391,-264,-342,-378,-424,-385,-244,-139
-260,-284,-308,-224,-357,-286,-379,-265,-343,-376,-413,-376,-244,-127
-261,-265,-324,-210,-367,-284,-383,-263,-335,-377,-433,-377,-243,-123
-260,-262,-338,-208,-367,-285,-413,-264,-331,-378,-420,-384,-243,-134
-261,-268,-353,-229,-355,-284,-406,-264,-334,-376,-383,-387,-245,-142
-261,-269,-362,-239,-335,-271,-377,-264,-339,-376,-388,-386,-247,-141
-260,-281,-338,-242,-357,-294,-389,-266,-341,-375,-331,-384,-243,-144
-259,-282,-349,-236,-363,-295,-373,-266,-357,-376,-332,-384,-243,-142
-261,-281,-346,-242,-364,-294,-353,-266,-363,-377,-329,-384,-243,-142
-260,-281,-324,-254,-357,-303,-369,-266,-359,-378,-332,-368,-243,-142
-257,-293,-324,-242,-355,-319,-391,-266,-367,-381,-331,-352,-243,-140
-259,-301,-335,-213,-361,-322,-386,-266,-372,-380,-333,-366,-243,-140
-261,-298,-330,-204,-366,-315,-379,-266,-366,-377,-331,-386,-243,-143
-261,-293,-330,-214,-366,-319,-379,-266,-371,-377,-322,-383,-243,-140
-260,-283,-332,-229,-358,-323,-377,-266,-367,-376,-337,-376,-243,-132
-260,-282,-312,-247,-350,-315,-386,-266,-353,-376,-359,-384,-243,-136
-260,-284,-304,-238,-368,-290,-378,-264,-368,-381,-365,-385,-243,-143
-259,-282,-309,-240,-362,-290,-363,-264,-375,-381,-362,-385,-243,-143
-258,-279,-310,-210,-373,-307,-380,-264,-369,-381,-356,-376,-243,-143
-261,-278,-300,-215,-386,-321,-391,-264,-369,-381,-334,-374,-243,-143
-261,-289,-294,-243,-375,-318,-369,-264,-372,-381,-341,-382,-243,-143
-260,-308,-293,-234,-362,-316,-357,-264,-369,-381,-362,-388,-246,-143
-260,-300,-297,-215,-365,-322,-369,-264,-368,-381,-358,-382,-249,-144
-260,-278,-309,-227,-364,-320,-367,-264,-372,-381,-357,-379,-246,-142
-260,-289,-319,-244,-350,-314,-347,-264,-371,-381,-351,-383,-245,-143
-260,-300,-322,-240,-343,-318,-351,-264,-366,-381,-334,-380,-250,-145
-259,-310,-327,-246,-175,-370,-451,-280,-369,-380,-332,-383,-250,-137
-260,-323,-334,-259,-152,-403,-428,-281,-370,-376,-309,-384,-246,-140
-261,-339,-341,-287,-108,-423,-419,-281,-364,-376,-283,-386,-244,-140
-257,-347,-323,-316,-81,-439,-413,-281,-375,-379,-277,-386,-247,-133
-258,-357,-301,-331,-68,-466,-389,-279,-402,-380,-282,-387,-247,-129
-261,-373,-291,-320,-55,-485,-378,-282,-410,-382,-289,-386,-243,-133
-259,-370,-284,-302,-55,-482,-387,-280,-412,-382,-299,-382,-243,-141
-258,-352,-277,-294,-74,-474,-383,-272,-417,-383,-322,-381,-244,-144
-261,-356,-293,-287,-80,-485,-362,-272,-412,-382,-330,-383,-243,-144
-262,-363,-313,-291,-71,-494,-367,-282,-402,-380,-300,-381,-243,-143
-258,-367,-334,-271,-232,-364,-351,-295,-431,-379,-257,-396,-247,-143
-266,-368,-304,-262,-230,-369,-357,-295,-426,-383,-295,-387,-247,-143
-268,-378,-296,-253,-226,-391,-352,-295,-421,-382,-284,-381,-249,-143
-266,-373,-315,-251,-236,-402,-372,-295,-418,-378,-247,-382,-247,-143
-267,-349,-332,-240,-247,-395,-374,-295,-409,-377,-259,-381,-249,-143
-267,-346,-333,-234,-241,-384,-350,-295,-399,-380,-269,-380,-250,-143
-266,-353,-325,-240,-241,-369,-353,-295,-398,-384,-260,-381,-246,-143
-266,-345,-316,-237,-248,-352,-355,-295,-403,-383,-289,-382,-242,-143
-266,-339,-301,-234,-245,-344,-351,-295,-404,-376,-317,-381,-248,-142
-266,-322,-313,-218,-312,-316,-326,-296,-398,-383,-371,-382,-243,-144
-266,-334,-324,-212,-321,-309,-308,-296,-410,-375,-366,-374,-246,-144
-266,-334,-325,-230,-307,-320,-316,-296,-424,-378,-356,-375,-253,-144
-266,-321,-319,-242,-296,-337,-321,-296,-412,-384,-359,-384,-244,-140
-266,-312,-318,-236,-313,-327,-335,-296,-395,-376,-359,-384,-241,-131
-266,-311,-329,-227,-324,-303,-351,-296,-396,-386,-338,-384,-249,-132
-266,-310,-343,-226,-309,-295,-350,-296,-394,-400,-324,-388,-251,-143
-266,-321,-344,-237,-297,-309,-345,-296,-381,-392,-328,-387,-247,-145
-266,-339,-333,-229,-295,-320,-342,-296,-391,-390,-327,-385,-248,-139
-266,-335,-318,-210,-297,-316,-335,-296,-430,-404,-323,-385,-248,-140
-260,-325,-310,-235,-312,-287,-291,-296,-411,-379,-396,-398,-249,-143
-260,-312,-319,-235,-316,-283,-312,-296,-409,-378,-391,-393,-251,-145
-260,-311,-322,-232,-306,-279,-333,-296,-424,-377,-372,-392,-250,-145
-260,-316,-329,-231,-294,-282,-325,-296,-420,-376,-366,-391,-250,-146
-260,-318,-328,-233,-303,-288,-318,-296,-424,-375,-362,-386,-252,-146
-260,-316,-322,-232,-309,-289,-318,-296,-435,-376,-365,-384,-247,-144
-260,-307,-319,-227,-303,-283,-338,-296,-422,-377,-394,-385,-246,-145
-260,-301,-319,-218,-302,-284,-358,-296,-412,-376,-396,-383,-253,-145
-261,-306,-337,-210,-309,-292,-336,-296,-429,-378,-367,-383,-251,-145
-260,-301,-356,-216,-307,-281,-331,-296,-426,-379,-374,-385,-249,-145
-260,-268,-351,-216,-399,-199,-375,-304,-426,-378,-320,-386,-252,-150
-260,-255,-358,-213,-414,-179,-387,-304,-407,-374,-345,-384,-251,-157
-261,-250,-356,-208,-432,-175,-388,-304,-395,-369,-358,-386,-252,-163
-261,-249,-367,-221,-432,-177,-376,-304,-396,-368,-335,-385,-252,-154
-261,-249,-367,-228,-426,-181,-380,-304,-403,-374,-324,-383,-251,-140
-260,-247,-336,-225,-431,-186,-391,-304,-413,-377,-330,-385,-252,-142
-260,-259,-317,-235,-438,-184,-383,-304,-426,-373,-324,-387,-251,-150
-261,-273,-334,-242,-443,-182,-348,-304,-422,-375,-316,-387,-251,-149
-262,-265,-353,-223,-446,-186,-332,-304,-404,-378,-338,-386,-253,-147
-261,-265,-362,-261,-442,-193,-414,-304,-321,-370,-301,-391,-252,-147
-260,-276,-372,-270,-433,-200,-365,-304,-314,-370,-298,-393,-252,-144
-260,-274,-357,-272,-456,-210,-388,-304,-303,-370,-293,-392,-251,-143
-260,-265,-341,-258,-465,-216,-426,-304,-311,-370,-295,-391,-252,-144
-260,-267,-344,-253,-455,-222,-403,-304,-329,-370,-302,-392,-251,-144
-261,-270,-361,-253,-454,-224,-370,-304,-338,-370,-314,-393,-251,-145
-260,-268,-366,-244,-463,-210,-381,-304,-341,-370,-314,-389,-254,-145
-260,-272,-358,-237,-462,-202,-396,-304,-337,-370,-311,-383,-254,-145
-261,-276,-359,-236,-457,-221,-386,-304,-342,-370,-312,-383,-250,-145
-260,-276,-362,-241,-457,-230,-376,-304,-359,-370,-300,-385,-251,-145
-261,-300,-324,-253,-330,-289,-310,-311,-385,-369,-366,-387,-255,-144
-258,-306,-325,-244,-329,-297,-324,-313,-400,-371,-357,-385,-254,-141
-260,-290,-322,-236,-316,-299,-347,-322,-398,-372,-373,-382,-254,-146
-263,-278,-339,-230,-308,-292,-382,-323,-391,-372,-354,-382,-253,-151
-261,-277,-366,-224,-316,-284,-392,-315,-390,-369,-341,-384,-252,-154
-259,-277,-358,-229,-324,-282,-371,-314,-385,-366,-361,-385,-252,-153
-261,-291,-322,-250,-314,-299,-343,-311,-396,-370,-360,-385,-252,-152
-261,-307,-303,-265,-302,-318,-328,-309,-422,-369,-352,-385,-251,-151
-260,-307,-311,-269,-312,-321,-308,-318,-425,-371,-367,-385,-252,-150
-261,-301,-327,-268,-322,-317,-285,-319,-408,-370,-375,-385,-251,-151
-265,-313,-350,-246,-262,-317,-328,-328,-424,-368,-290,-392,-260,-155
-266,-312,-344,-252,-249,-316,-320,-328,-427,-373,-305,-396,-254,-155
-269,-315,-331,-239,-251,-320,-296,-328,-420,-371,-324,-394,-258,-158
-269,-323,-325,-236,-270,-320,-292,-328,-423,-372,-298,-388,-261,-158
-265,-317,-331,-242,-279,-313,-289,-328,-439,-379,-301,-384,-251,-155
-272,-303,-332,-240,-273,-312,-284,-328,-435,-383,-332,-384,-259,-160
-280,-309,-330,-236,-269,-317,-281,-328,-422,-377,-310,-385,-277,-166
-282,-314,-332,-240,-260,-319,-284,-328,-420,-374,-291,-385,-278,-159
-277,-302,-328,-238,-252,-315,-299,-328,-412,-380,-323,-383,-266,-155
-258,-299,-344,-270,-339,-280,-330,-326,-371,-367,-338,-385,-253,-156
-257,-301,-328,-288,-321,-286,-352,-326,-384,-365,-333,-385,-254,-160
-257,-304,-332,-292,-332,-285,-355,-326,-380,-366,-323,-386,-253,-160
-260,-304,-353,-271,-344,-285,-335,-326,-369,-367,-333,-384,-249,-155
-262,-299,-363,-258,-338,-276,-331,-326,-377,-366,-346,-384,-249,-153
-258,-297,-355,-264,-324,-262,-354,-326,-381,-368,-342,-389,-255,-155
-258,-300,-359,-271,-328,-261,-368,-326,-367,-369,-315,-394,-258,-154
-262,-296,-378,-270,-331,-260,-359,-326,-369,-367,-295,-396,-252,-154
-263,-291,-367,-274,-326,-261,-351,-326,-372,-368,-312,-396,-252,-154
-261,-295,-330,-250,-425,-117,-382,-326,-381,-372,-402,-384,-252,-158
-260,-287,-339,-269,-430,-117,-357,-326,-375,-368,-405,-387,-252,-156
-260,-292,-364,-268,-424,-122,-350,-326,-373,-365,-409,-387,-256,-157
-261,-295,-363,-253,-424,-120,-358,-326,-381,-368,-400,-386,-255,-154
-259,-283,-357,-255,-425,-118,-356,-326,-382,-370,-422,-386,-250,-152
-259,-283,-357,-263,-426,-123,-374,-326,-381,-370,-433,-386,-252,-156
-259,-300,-351,-267,-427,-124,-386,-326,-388,-371,-403,-387,-255,-157
-261,-307,-354,-265,-415,-126,-356,-326,-378,-372,-404,-386,-253,-157
-260,-296,-364,-255,-409,-137,-347,-326,-371,-371,-428,-386,-251,-158
-250,-313,-332,-266,-269,-354,-340,-326,-395,-362,-435,-381,-256,-154
-243,-312,-327,-261,-269,-353,-323,-326,-402,-374,-421,-384,-256,-154
-256,-312,-331,-281,-272,-350,-328,-326,-419,-371,-395,-386,-253,-155
-257,-309,-321,-287,-274,-347,-351,-326,-408,-367,-417,-385,-251,-151
-255,-307,-318,-272,-275,-352,-346,-326,-391,-371,-422,-385,-249,-153
-261,-311,-324,-262,-273,-346,-319,-326,-395,-372,-384,-385,-252,-160
-260,-310,-321,-265,-262,-327,-317,-326,-403,-369,-381,-386,-255,-158
-256,-296,-322,-264,-262,-318,-327,-326,-395,-367,-410,-384,-254,-156
-261,-286,-320,-251,-277,-319,-320,-326,-390,-373,-407,-381,-253,-156
-263,-290,-326,-240,-309,-332,-386,-336,-360,-369,-367,-381,-257,-154
-260,-275,-347,-246,-340,-292,-384,-336,-345,-373,-357,-390,-262,-174
-260,-274,-351,-245,-361,-269,-374,-336,-335,-374,-358,-396,-265,-179
-263,-273,-324,-233,-391,-245,-408,-336,-333,-368,-371,-389,-266,-175
-261,-274,-313,-229,-412,-237,-408,-336,-338,-365,-359,-381,-260,-178
-264,-280,-331,-238,-403,-256,-353,-336,-338,-369,-353,-385,-258,-177
-269,-286,-333,-241,-394,-261,-354,-336,-349,-368,-356,-388,-261,-176
-265,-282,-326,-234,-399,-249,-388,-336,-358,-367,-360,-382,-259,-176
-261,-266,-348,-225,-397,-251,-370,-336,-354,-374,-363,-383,-252,-176
-261,-279,-321,-234,-375,-232,-384,-336,-355,-375,-398,-386,-258,-172
-259,-286,-326,-229,-379,-232,-372,-336,-352,-368,-399,-386,-269,-172
-258,-284,-329,-223,-392,-229,-386,-336,-353,-370,-410,-387,-264,-172
-258,-279,-323,-232,-388,-225,-391,-335,-367,-379,-400,-387,-249,-173
-259,-280,-314,-243,-377,-227,-396,-336,-372,-376,-381,-386,-255,-173
-258,-289,-317,-242,-370,-242,-396,-336,-368,-370,-393,-386,-266,-171
-257,-299,-330,-236,-365,-242,-402,-335,-366,-374,-407,-386,-256,-174
-258,-296,-338,-236,-369,-225,-418,-336,-353,-376,-399,-387,-251,-172
-259,-291,-346,-249,-377,-223,-415,-338,-351,-372,-384,-386,-258,-163
-257,-286,-312,-243,-328,-229,-382,-336,-391,-373,-429,-395,-270,-166
-256,-295,-302,-244,-325,-235,-383,-336,-392,-375,-425,-387,-264,-176
-256,-308,-326,-242,-337,-254,-377,-336,-396,-378,-412,-382,-247,-175
-261,-299,-335,-239,-341,-244,-394,-336,-380,-375,-420,-383,-252,-168
-263,-282,-307,-233,-345,-217,-421,-336,-368,-374,-416,-384,-258,-169
-258,-279,-310,-234,-349,-218,-416,-336,-371,-374,-402,-390,-251,-171
-257,-282,-346,-255,-340,-227,-392,-336,-364,-369,-396,-397,-251,-169
-260,-277,-349,-269,-332,-220,-396,-336,-357,-366,-392,-395,-256,-169
-259,-277,-328,-252,-338,-218,-414,-336,-359,-368,-393,-392,-254,-169
-258,-280,-330,-239,-341,-221,-416,-336,-359,-376,-396,-398,-255,-169
-259,-277,-330,-252,-331,-244,-366,-336,-424,-371,-404,-384,-264,-169
-258,-286,-317,-253,-334,-245,-384,-336,-410,-370,-369,-386,-267,-169
-258,-282,-316,-247,-337,-244,-389,-336,-404,-370,-367,-382,-258,-169
-259,-279,-307,-240,-347,-243,-378,-336,-394,-370,-420,-382,-257,-169
-258,-281,-291,-239,-361,-239,-379,-336,-391,-370,-438,-385,-272,-169
-257,-271,-292,-236,-353,-233,-391,-336,-410,-369,-418,-386,-275,-169
-260,-263,-305,-238,-333,-232,-379,-336,-427,-370,-425,-383,-260,-169
-261,-266,-305,-249,-332,-230,-356,-336,-425,-369,-434,-386,-258,-169
-258,-274,-302,-256,-340,-236,-360,-336,-415,-369,-421,-391,-264,-169
-260,-292,-321,-231,-313,-272,-386,-344,-410,-376,-357,-383,-266,-169
-261,-290,-313,-232,-329,-259,-412,-346,-406,-377,-355,-379,-263,-169
-260,-292,-316,-239,-328,-277,-379,-352,-427,-378,-357,-383,-269,-169
-261,-287,-319,-248,-319,-294,-344,-347,-437,-378,-358,-396,-266,-169
-260,-278,-317,-245,-332,-287,-368,-335,-414,-371,-358,-392,-261,-169
-260,-279,-314,-237,-350,-283,-398,-335,-390,-369,-358,-381,-261,-169
-262,-285,-322,-238,-351,-289,-377,-341,-392,-372,-342,-382,-261,-169
-258,-290,-330,-246,-343,-297,-385,-342,-400,-369,-312,-383,-260,-169
-254,-295,-331,-246,-331,-301,-410,-340,-391,-369,-319,-382,-255,-169
-259,-269,-309,-224,-372,-248,-376,-336,-396,-378,-417,-383,-267,-182
-258,-268,-311,-219,-375,-239,-376,-336,-406,-377,-416,-383,-269,-180
-259,-273,-308,-210,-371,-242,-365,-336,-410,-378,-425,-384,-269,-182
-257,-270,-327,-222,-366,-246,-366,-336,-402,-375,-419,-384,-260,-175
-256,-258,-335,-237,-361,-236,-405,-336,-389,-367,-402,-385,-260,-171
-262,-245,-326,-235,-361,-227,-423,-336,-373,-367,-412,-386,-277,-177
-264,-250,-336,-223,-367,-236,-388,-336,-373,-374,-421,-386,-279,-178
-259,-258,-356,-225,-369,-247,-371,-336,-390,-372,-392,-386,-264,-174
-258,-254,-346,-236,-366,-248,-395,-336,-392,-367,-380,-387,-261,-175
-261,-303,-297,-269,-340,-320,-374,-336,-365,-372,-385,-382,-272,-182
-259,-283,-317,-287,-337,-317,-373,-334,-348,-372,-386,-382,-267,-182
-256,-277,-324,-297,-347,-310,-379,-338,-333,-371,-387,-383,-270,-182
-258,-285,-310,-289,-352,-300,-377,-339,-352,-368,-394,-374,-269,-182
-261,-284,-298,-287,-342,-291,-358,-336,-376,-367,-409,-375,-265,-182
-260,-280,-293,-294,-345,-285,-348,-337,-366,-370,-418,-385,-265,-182
-259,-293,-292,-290,-356,-286,-332,-349,-364,-371,-424,-385,-259,-183
-259,-301,-301,-278,-344,-293,-318,-353,-381,-371,-420,-381,-258,-183
-258,-289,-315,-272,-319,-289,-343,-343,-382,-376,-413,-386,-266,-182
-259,-289,-393,-325,-301,-306,-471,-342,-239,-372,-292,-393,-274,-182
-261,-304,-393,-325,-309,-323,-429,-343,-266,-373,-304,-384,-273,-182
-259,-298,-383,-318,-307,-316,-420,-341,-282,-371,-313,-382,-271,-182
-259,-277,-366,-296,-320,-314,-437,-352,-280,-374,-308,-384,-271,-182
-258,-286,-349,-288,-332,-333,-425,-359,-278,-376,-312,-382,-273,-182
-259,-291,-337,-296,-341,-331,-425,-349,-279,-371,-316,-383,-272,-182
-263,-277,-345,-297,-340,-331,-433,-340,-294,-368,-302,-386,-271,-182
-262,-289,-361,-293,-328,-350,-408,-342,-301,-371,-294,-386,-273,-182
-259,-307,-361,-286,-332,-354,-400,-344,-289,-371,-309,-385,-275,-182
-259,-292,-362,-260,-353,-349,-411,-342,-293,-368,-319,-385,-272,-182
-260,-296,-360,-270,-82,-388,-397,-354,-445,-375,-401,-384,-272,-186
-259,-292,-347,-287,-97,-378,-411,-360,-423,-371,-424,-383,-272,-183
-258,-279,-359,-296,-104,-383,-406,-348,-405,-373,-427,-385,-272,-182
-257,-277,-370,-286,-102,-383,-402,-343,-418,-371,-411,-386,-274,-183
-255,-285,-355,-282,-107,-379,-399,-351,-431,-366,-393,-383,-275,-183
-255,-284,-343,-288,-107,-381,-380,-356,-422,-367,-411,-387,-273,-182
-256,-280,-348,-275,-116,-381,-375,-357,-408,-368,-454,-385,-273,-183
-257,-280,-353,-258,-135,-380,-387,-350,-397,-369,-461,-374,-275,-183
-258,-278,-359,-280,-121,-383,-384,-346,-396,-370,-431,-374,-273,-183
-260,-129,-435,-333,55,-408,-472,-342,-464,-378,-432,-393,-273,-174
-254,-122,-429,-335,54,-412,-489,-344,-483,-378,-429,-391,-273,-176
-257,-136,-422,-334,45,-434,-490,-344,-474,-379,-415,-387,-273,-176
-262,-154,-426,-330,47,-446,-467,-344,-462,-378,-417,-385,-273,-175
-261,-128,-416,-325,59,-439,-481,-344,-482,-378,-428,-383,-274,-176
-257,-90,-409,-334,52,-441,-512,-337,-486,-379,-431,-385,-273,-175
-258,-102,-419,-353,46,-444,-499,-332,-467,-378,-413,-393,-273,-175
-260,-115,-427,-353,41,-424,-479,-345,-465,-376,-409,-396,-275,-175
-259,-84,-418,-347,25,-418,-484,-353,-460,-376,-440,-394,-276,-175
-256,-249,-361,-289,-85,-354,-434,-358,-457,-378,-414,-391,-275,-185
-260,-251,-369,-311,-40,-365,-442,-358,-455,-378,-401,-389,-276,-183
-261,-261,-385,-326,-30,-384,-443,-356,-426,-378,-383,-389,-276,-183
-258,-277,-376,-310,-21,-402,-423,-352,-436,-377,-399,-389,-274,-180
-259,-284,-368,-311,-1,-428,-415,-352,-456,-379,-388,-390,-273,-173
-262,-296,-385,-331,1,-452,-416,-355,-445,-379,-337,-390,-274,-175
-259,-303,-382,-330,-9,-446,-420,-354,-441,-373,-335,-384,-274,-179
-258,-288,-359,-320,-12,-421,-438,-354,-441,-373,-366,-381,-274,-174
-259,-287,-359,-320,-9,-408,-440,-354,-440,-381,-367,-384,-274,-175
-258,-320,-341,-267,-214,-290,-389,-355,-432,-378,-415,-381,-274,-183
-258,-335,-324,-266,-191,-287,-409,-355,-437,-377,-429,-380,-273,-183
-259,-324,-324,-268,-177,-286,-399,-355,-461,-380,-412,-373,-273,-182
-259,-318,-336,-277,-190,-302,-372,-355,-454,-379,-388,-373,-273,-183
-257,-337,-324,-281,-191,-310,-358,-355,-454,-377,-393,-372,-273,-182
-259,-348,-313,-266,-184,-300,-367,-355,-464,-380,-408,-367,-273,-183
-261,-333,-336,-251,-187,-290,-386,-355,-448,-379,-412,-370,-273,-182
-258,-319,-348,-254,-192,-287,-401,-354,-435,-376,-409,-378,-273,-182
-257,-319,-332,-266,-189,-289,-402,-354,-435,-375,-401,-384,-273,-184
-259,-335,-345,-289,-212,-246,-380,-358,-412,-379,-400,-381,-275,-184
-259,-333,-353,-282,-233,-248,-383,-358,-393,-379,-384,-384,-275,-186
-260,-335,-361,-280,-224,-249,-387,-358,-396,-378,-393,-389,-277,-186
-261,-340,-361,-283,-211,-249,-382,-358,-414,-379,-394,-383,-277,-186
-260,-335,-361,-276,-224,-244,-384,-358,-409,-379,-392,-383,-276,-187
-258,-321,-361,-264,-233,-243,-400,-358,-398,-378,-394,-386,-275,-185
-257,-316,-361,-273,-226,-248,-394,-358,-405,-377,-399,-385,-275,-183
-259,-326,-361,-288,-224,-253,-379,-358,-410,-377,-415,-384,-274,-183
-259,-334,-361,-287,-226,-255,-380,-358,-404,-379,-409,-383,-273,-185
-257,-330,-360,-287,-226,-255,-385,-357,-399,-378,-386,-383,-274,-184
-261,-310,-357,-286,-256,-286,-362,-358,-385,-381,-336,-384,-274,-190
-263,-310,-352,-287,-266,-287,-356,-358,-387,-380,-342,-384,-273,-187
-262,-313,-355,-294,-278,-295,-344,-358,-385,-380,-336,-386,-279,-187
-258,-323,-357,-297,-274,-299,-345,-358,-377,-380,-327,-386,-279,-188
-259,-339,-351,-302,-265,-317,-358,-358,-380,-378,-322,-385,-274,-187
-260,-337,-344,-289,-269,-323,-375,-358,-398,-379,-330,-385,-275,-188
-260,-324,-351,-268,-269,-298,-366,-358,-411,-381,-336,-385,-276,-190
-260,-325,-364,-273,-262,-290,-343,-358,-407,-381,-330,-386,-276,-189
-260,-334,-366,-281,-265,-298,-357,-358,-394,-380,-324,-385,-276,-187
-258,-344,-352,-288,-230,-241,-376,-358,-414,-383,-397,-385,-274,-187
-257,-354,-359,-286,-232,-249,-374,-358,-407,-380,-390,-387,-274,-186
-258,-358,-346,-281,-235,-257,-375,-358,-429,-379,-372,-385,-274,-186
-258,-355,-346,-289,-224,-254,-381,-358,-433,-379,-352,-386,-274,-189
-258,-365,-365,-297,-201,-258,-390,-358,-419,-378,-335,-387,-274,-191
-260,-368,-367,-295,-199,-260,-393,-358,-438,-378,-323,-386,-274,-189
-260,-358,-352,-293,-220,-254,-384,-358,-461,-382,-330,-385,-274,-184
-260,-367,-347,-293,-230,-267,-352,-358,-459,-385,-348,-387,-274,-184
-259,-376,-344,-292,-227,-289,-328,-358,-455,-378,-362,-386,-274,-188
-255,-299,-338,-248,-349,-288,-344,-358,-363,-373,-424,-376,-277,-193
-254,-303,-339,-250,-346,-288,-340,-358,-379,-371,-421,-379,-276,-184
-260,-314,-327,-237,-335,-299,-348,-358,-397,-370,-416,-384,-279,-187
-264,-314,-328,-248,-327,-301,-330,-358,-400,-375,-402,-382,-279,-190
-262,-310,-327,-263,-308,-295,-327,-358,-418,-378,-403,-380,-277,-189
-261,-316,-320,-260,-295,-301,-337,-358,-431,-374,-410,-383,-276,-188
-261,-316,-332,-249,-315,-303,-335,-358,-408,-371,-386,-384,-276,-187
-261,-311,-340,-237,-329,-290,-339,-358,-391,-374,-382,-383,-275,-188
-260,-310,-337,-241,-305,-291,-334,-358,-413,-375,-417,-383,-275,-187
-259,-316,-340,-254,-291,-301,-321,-358,-424,-370,-419,-383,-275,-186
-261,-345,-322,-298,-305,-287,-350,-371,-394,-385,-331,-383,-273,-197
-261,-352,-352,-312,-276,-291,-330,-371,-404,-384,-316,-388,-275,-189
-260,-362,-357,-333,-250,-299,-322,-371,-411,-382,-291,-390,-274,-186
-260,-363,-341,-359,-221,-311,-312,-371,-413,-383,-289,-397,-275,-188
-262,-350,-325,-379,-232,-309,-319,-371,-417,-383,-293,-402,-280,-188
-260,-338,-313,-384,-266,-302,-345,-371,-408,-377,-299,-401,-281,-192
-257,-342,-315,-393,-247,-313,-323,-371,-392,-375,-325,-400,-279,-197
-261,-358,-317,-416,-224,-327,-278,-371,-380,-376,-329,-401,-278,-194
-263,-366,-313,-415,-242,-324,-283,-371,-362,-378,-322,-402,-276,-186
-258,-356,-293,-292,-296,-348,-323,-371,-392,-375,-349,-382,-274,-197
-256,-354,-292,-267,-303,-354,-350,-371,-377,-377,-365,-382,-277,-198
-261,-346,-307,-238,-299,-346,-363,-371,-369,-381,-371,-386,-277,-199
-263,-328,-341,-226,-307,-325,-379,-371,-365,-379,-347,-387,-278,-194
-261,-321,-365,-242,-321,-313,-403,-371,-347,-376,-328,-385,-280,-197
-260,-329,-363,-255,-325,-312,-415,-371,-330,-374,-317,-385,-279,-203
-260,-339,-350,-262,-328,-323,-414,-371,-333,-373,-302,-384,-279,-195
-258,-344,-346,-281,-322,-342,-406,-371,-323,-372,-293,-383,-278,-194
-259,-344,-352,-316,-302,-352,-391,-371,-287,-368,-290,-384,-278,-202
-260,-344,-297,-373,-149,-443,-312,-371,-236,-378,-472,-379,-280,-203
-261,-340,-296,-391,-151,-448,-313,-371,-222,-381,-455,-384,-280,-205
-259,-340,-291,-390,-155,-446,-314,-371,-217,-379,-464,-383,-280,-206
-256,-324,-290,-379,-178,-448,-323,-371,-215,-378,-461,-380,-280,-208
-258,-311,-301,-362,-192,-460,-323,-371,-211,-382,-468,-382,-280,-205
-261,-311,-306,-352,-178,-459,-317,-371,-211,-381,-490,-383,-280,-201
-260,-305,-300,-354,-182,-445,-332,-371,-214,-378,-487,-386,-280,-202
-260,-298,-302,-345,-202,-442,-353,-371,-209,-387,-478,-387,-280,-204
-260,-298,-302,-328,-203,-446,-350,-371,-207,-393,-490,-385,-280,-205
-261,-374,-323,-266,-213,-346,-340,-371,-387,-382,-425,-386,-280,-192
-259,-354,-324,-270,-206,-354,-325,-371,-391,-382,-425,-383,-278,-199
-257,-343,-330,-273,-190,-350,-314,-371,-403,-377,-442,-386,-281,-202
-260,-349,-327,-271,-204,-356,-326,-371,-400,-374,-456,-384,-281,-201
-261,-343,-325,-264,-223,-379,-345,-371,-392,-379,-430,-382,-279,-201
-258,-327,-346,-256,-231,-384,-347,-371,-404,-380,-411,-382,-278,-202
-256,-336,-356,-240,-233,-376,-345,-371,-412,-376,-422,-384,-278,-203
-259,-347,-340,-232,-213,-380,-328,-371,-412,-388,-422,-383,-276,-205
-261,-329,-321,-252,-195,-390,-311,-371,-435,-407,-414,-378,-275,-203
-260,-308,-328,-334,-407,-149,-366,-371,-298,-378,-374,-400,-281,-213
-261,-301,-349,-327,-400,-153,-352,-371,-303,-380,-390,-392,-282,-213
-263,-284,-355,-314,-426,-144,-386,-371,-303,-383,-389,-383,-279,-213
-263,-277,-350,-288,-439,-134,-421,-371,-298,-378,-387,-380,-277,-213
-262,-280,-362,-255,-444,-128,-419,-371,-305,-379,-401,-381,-281,-213
-259,-276,-368,-235,-462,-118,-413,-371,-330,-382,-416,-382,-283,-213
-260,-277,-365,-223,-452,-120,-419,-371,-342,-380,-427,-384,-283,-213
-261,-289,-359,-218,-427,-137,-412,-371,-337,-377,-440,-381,-287,-213
-260,-300,-347,-228,-429,-153,-395,-371,-338,-380,-438,-384,-285,-213
-263,-318,-348,-272,-373,-204,-382,-371,-382,-395,-388,-397,-276,-206
-261,-305,-333,-264,-359,-193,-374,-371,-392,-406,-372,-395,-278,-207
-260,-316,-320,-264,-358,-192,-380,-371,-390,-398,-352,-393,-280,-210
-262,-330,-328,-268,-365,-208,-386,-371,-387,-399,-351,-395,-277,-207
-260,-337,-348,-268,-364,-218,-381,-371,-388,-403,-371,-393,-275,-205
-254,-344,-340,-272,-372,-211,-374,-371,-392,-399,-395,-393,-276,-205
-253,-343,-330,-280,-385,-214,-371,-371,-404,-401,-398,-404,-277,-195
-256,-344,-351,-282,-373,-228,-372,-371,-415,-402,-388,-403,-274,-187
-249,-347,-356,-276,-363,-232,-383,-371,-410,-403,-387,-391,-274,-199
-216,-388,-387,-238,-375,-303,-481,-367,-380,-369,-452,-397,-251,-182
-211,-401,-383,-245,-361,-320,-465,-367,-402,-376,-461,-392,-254,-182
-205,-399,-383,-257,-354,-338,-465,-366,-393,-381,-467,-394,-255,-183
-190,-410,-398,-268,-372,-358,-481,-367,-390,-374,-467,-396,-250,-178
-173,-429,-411,-283,-385,-377,-503,-367,-410,-365,-479,-395,-243,-172
-179,-433,-402,-283,-379,-388,-501,-367,-419,-365,-473,-395,-240,-171
-196,-433,-385,-269,-372,-388,-467,-367,-411,-367,-450,-396,-246,-174
-201,-431,-384,-266,-365,-382,-453,-367,-408,-368,-445,-398,-248,-178
-198,-420,-394,-263,-360,-378,-466,-367,-404,-377,-454,-393,-249,-184
-295,-409,-329,-177,-65,-421,-355,-368,-279,-410,-331,-418,-306,-221
-287,-408,-330,-160,-63,-432,-351,-368,-276,-409,-325,-416,-307,-215
-302,-401,-351,-147,-73,-428,-349,-368,-261,-408,-330,-414,-305,-222
-313,-398,-354,-143,-72,-409,-345,-368,-252,-412,-350,-414,-309,-237
-311,-396,-328,-141,-60,-430,-344,-368,-252,-415,-356,-414,-317,-240
-306,-395,-315,-146,-59,-449,-346,-368,-256,-414,-328,-416,-315,-238
-303,-400,-327,-154,-62,-437,-353,-368,-265,-410,-317,-417,-306,-241
-309,-403,-336,-159,-53,-446,-363,-368,-267,-413,-327,-416,-307,-237
-297,-413,-345,-179,-59,-476,-378,-368,-269,-414,-320,-417,-311,-218
-263,-438,-361,-216,-100,-506,-398,-368,-295,-396,-325,-417,-293,-203
-225,-401,-344,-336,-371,-463,-402,-361,-433,-313,-502,-368,-272,-198
-233,-372,-302,-316,-321,-424,-361,-379,-396,-317,-463,-378,-298,-211
-235,-371,-299,-310,-287,-417,-342,-384,-388,-337,-446,-392,-302,-220
-201,-414,-334,-337,-311,-464,-367,-378,-425,-337,-476,-395,-274,-206
-110,-492,-390,-409,-388,-556,-440,-378,-503,-314,-569,-396,-225,-164
-10,-568,-457,-495,-476,-665,-531,-376,-596,-290,-680,-393,-172,-123
44,-608,-504,-552,-530,-737,-595,-367,-652,-266,-747,-387,-132,-83
55,-599,-505,-562,-534,-742,-604,-364,-660,-244,-772,-386,-125,-63
33,-570,-469,-520,-513,-708,-578,-367,-651,-246,-759,-373,-144,-79
-265,-381,-301,-193,-386,-288,-338,-381,-316,-398,-385,-398,-301,-237
-263,-377,-297,-201,-388,-297,-360,-379,-303,-399,-386,-394,-297,-232
-261,-375,-287,-204,-397,-300,-364,-382,-308,-400,-389,-395,-291,-231
-263,-374,-292,-212,-400,-288,-331,-382,-319,-399,-389,-397,-304,-232
-259,-376,-300,-209,-398,-282,-310,-381,-334,-400,-383,-388,-299,-232
-259,-377,-284,-195,-399,-284,-332,-381,-338,-406,-400,-382,-280,-237
-259,-374,-266,-201,-396,-286,-350,-382,-336,-408,-416,-383,-282,-234
-258,-380,-275,-221,-404,-302,-339,-383,-357,-404,-395,-382,-287,-221
-257,-387,-287,-227,-422,-320,-332,-381,-368,-401,-376,-382,-279,-217
-260,-379,-320,-284,-169,-422,-350,-386,-321,-406,-395,-395,-287,-222
-255,-387,-326,-254,-180,-406,-348,-384,-327,-412,-415,-397,-283,-221
-251,-389,-323,-227,-185,-410,-363,-383,-348,-411,-431,-393,-283,-228
-238,-394,-323,-225,-170,-411,-373,-388,-364,-410,-445,-392,-279,-224
-225,-409,-336,-235,-167,-413,-349,-387,-371,-410,-467,-395,-274,-213
-228,-413,-346,-241,-186,-415,-341,-383,-360,-408,-453,-400,-274,-214
-231,-410,-349,-256,-191,-415,-365,-384,-340,-409,-421,-399,-276,-215
-228,-424,-356,-286,-166,-430,-379,-384,-336,-408,-415,-393,-276,-214
-225,-439,-357,-302,-153,-452,-398,-383,-324,-400,-412,-395,-275,-214
-238,-460,-327,-266,-286,-462,-350,-383,-284,-381,-323,-393,-287,-210
-228,-478,-326,-279,-284,-475,-346,-383,-294,-384,-340,-394,-286,-201
-228,-473,-331,-265,-281,-475,-346,-383,-304,-389,-385,-395,-280,-208
-230,-454,-329,-239,-285,-460,-351,-383,-305,-389,-405,-390,-274,-209
-223,-444,-331,-196,-301,-432,-369,-384,-319,-390,-420,-384,-275,-199
-231,-434,-344,-151,-311,-402,-390,-383,-337,-397,-450,-384,-278,-206
-250,-417,-351,-135,-301,-376,-389,-382,-321,-402,-468,-385,-283,-219
-249,-410,-345,-135,-293,-354,-387,-382,-304,-404,-459,-386,-286,-217
-253,-420,-334,-147,-291,-355,-387,-381,-302,-403,-434,-388,-282,-216
-240,-430,-342,-217,-298,-379,-415,-387,-269,-386,-358,-399,-284,-218
-233,-440,-357,-235,-314,-387,-416,-386,-273,-385,-356,-407,-280,-215
-232,-441,-367,-255,-326,-396,-425,-386,-267,-389,-352,-419,-276,-214
-225,-446,-363,-268,-313,-418,-431,-387,-255,-390,-354,-418,-276,-210
-224,-454,-356,-281,-295,-437,-415,-386,-254,-383,-354,-406,-276,-204
-226,-445,-358,-297,-317,-413,-413,-386,-255,-376,-332,-404,-272,-206
-229,-431,-364,-312,-354,-373,-437,-388,-243,-379,-329,-405,-272,-207
-223,-438,-358,-331,-359,-377,-449,-388,-241,-382,-353,-405,-274,-206
-211,-443,-343,-332,-367,-381,-444,-388,-250,-376,-373,-407,-270,-206
-247,-377,-255,-216,-325,-338,-296,-387,-433,-395,-494,-389,-290,-225
-266,-375,-267,-218,-259,-338,-311,-387,-429,-398,-477,-397,-297,-234
-260,-376,-268,-218,-247,-369,-291,-387,-456,-404,-483,-392,-289,-224
-226,-386,-275,-233,-297,-390,-281,-387,-484,-392,-511,-381,-279,-214
-196,-400,-296,-256,-317,-384,-316,-388,-488,-376,-524,-379,-280,-212
-187,-411,-306,-273,-306,-397,-329,-386,-490,-371,-520,-382,-276,-202
-207,-404,-298,-289,-296,-407,-311,-385,-487,-374,-517,-381,-276,-204
-221,-397,-288,-304,-291,-397,-316,-387,-480,-377,-516,-380,-282,-217
-206,-404,-282,-297,-301,-402,-323,-383,-484,-380,-513,-381,-278,-210
-193,-409,-286,-286,-318,-421,-325,-384,-494,-379,-525,-381,-270,-202
-230,-380,-306,-280,-291,-403,-355,-389,-367,-404,-475,-384,-284,-214
-227,-382,-293,-300,-309,-402,-354,-389,-368,-404,-475,-382,-280,-213
-228,-387,-295,-295,-309,-398,-353,-389,-371,-404,-494,-385,-276,-205
-231,-383,-321,-299,-305,-392,-348,-389,-367,-405,-499,-384,-281,-206
-228,-376,-320,-319,-305,-380,-348,-389,-365,-404,-485,-381,-281,-211
-229,-378,-300,-316,-308,-378,-355,-389,-368,-402,-490,-391,-273,-211
-228,-386,-306,-295,-307,-381,-347,-389,-368,-399,-514,-398,-276,-210
-226,-396,-329,-292,-296,-383,-343,-389,-369,-400,-509,-389,-284,-210
-228,-399,-330,-293,-295,-392,-371,-389,-364,-399,-482,-381,-284,-214
-225,-420,-375,-321,-227,-522,-418,-387,-214,-402,-361,-397,-279,-217
-230,-424,-360,-320,-231,-518,-421,-387,-216,-405,-360,-395,-286,-217
-228,-422,-353,-319,-223,-522,-444,-387,-215,-399,-382,-397,-284,-217
-225,-406,-363,-307,-240,-509,-449,-387,-216,-397,-397,-397,-275,-218
-228,-396,-362,-291,-260,-497,-442,-387,-216,-400,-391,-389,-293,-218
-228,-401,-350,-291,-247,-504,-451,-389,-218,-399,-404,-382,-308,-215
-226,-400,-337,-300,-238,-502,-445,-390,-225,-398,-414,-384,-294,-220
-230,-393,-334,-297,-248,-490,-422,-389,-220,-400,-399,-385,-296,-228
-234,-403,-346,-291,-230,-495,-409,-388,-217,-404,-379,-386,-314,-222
-283,-341,-340,-275,-283,-321,-424,-397,-214,-419,-277,-412,-311,-244
-292,-346,-329,-267,-282,-317,-417,-397,-218,-434,-264,-414,-320,-246
-294,-349,-317,-246,-306,-321,-405,-397,-217,-435,-231,-397,-329,-248
-296,-341,-303,-238,-308,-302,-382,-397,-211,-434,-220,-387,-332,-253
-319,-320,-296,-228,-273,-276,-379,-397,-211,-440,-241,-399,-335,-262
-330,-306,-304,-206,-256,-268,-386,-397,-205,-444,-235,-415,-340,-271
-323,-314,-304,-198,-257,-263,-387,-397,-191,-443,-213,-410,-338,-277
-323,-327,-292,-209,-248,-258,-373,-397,-194,-444,-220,-399,-337,-279
-324,-328,-293,-208,-243,-267,-355,-397,-215,-441,-218,-398,-338,-279
-125,-431,-466,-450,-357,-347,-570,-398,-347,-332,-502,-415,-253,-218
-103,-442,-483,-478,-393,-382,-601,-397,-378,-296,-496,-398,-248,-199
-184,-371,-412,-417,-324,-297,-532,-398,-303,-319,-418,-388,-292,-220
-153,-389,-419,-444,-352,-300,-553,-398,-330,-320,-507,-397,-273,-210
-12,-482,-505,-565,-482,-422,-678,-395,-458,-262,-650,-398,-213,-164
21,-508,-530,-602,-514,-473,-702,-389,-499,-233,-629,-387,-200,-147
-44,-474,-497,-551,-443,-429,-636,-385,-451,-262,-544,-382,-219,-171
-82,-445,-470,-513,-402,-389,-604,-384,-413,-286,-542,-385,-235,-192
-109,-415,-434,-494,-391,-361,-600,-387,-377,-295,-548,-385,-251,-202
-247,-308,-359,-363,-323,-320,-406,-398,-374,-406,-309,-391,-309,-222
-247,-303,-358,-359,-329,-319,-414,-397,-371,-398,-307,-396,-308,-228
-257,-299,-354,-371,-320,-317,-415,-397,-376,-397,-310,-402,-306,-236
-257,-301,-351,-386,-305,-322,-396,-397,-376,-403,-291,-407,-307,-236
-246,-306,-355,-385,-297,-328,-393,-397,-369,-402,-287,-411,-307,-231
-246,-305,-361,-383,-308,-327,-411,-397,-365,-401,-296,-406,-307,-221
-244,-299,-361,-388,-333,-324,-416,-397,-377,-402,-286,-398,-306,-214
-235,-301,-355,-388,-329,-327,-414,-397,-392,-400,-288,-402,-302,-216
-231,-311,-345,-387,-310,-336,-411,-397,-405,-401,-306,-402,-303,-218
-243,-314,-341,-393,-205,-374,-377,-397,-425,-400,-346,-403,-306,-215
-253,-312,-344,-399,-203,-379,-382,-397,-418,-401,-337,-401,-306,-226
-258,-313,-342,-395,-197,-383,-385,-397,-423,-400,-324,-406,-306,-237
-250,-316,-340,-393,-206,-380,-366,-397,-427,-400,-328,-411,-306,-230
-245,-316,-348,-393,-222,-380,-352,-397,-425,-401,-344,-413,-306,-226
-253,-314,-344,-390,-223,-380,-353,-397,-418,-400,-363,-412,-306,-234
-260,-315,-326,-379,-217,-367,-354,-397,-420,-400,-380,-408,-306,-231
-257,-318,-323,-376,-227,-361,-349,-397,-444,-405,-357,-399,-306,-219
-256,-326,-332,-383,-229,-376,-352,-397,-457,-410,-321,-399,-306,-223
-259,-335,-338,-381,-216,-388,-359,-397,-438,-405,-318,-403,-306,-236
-258,-345,-341,-357,-361,-240,-347,-397,-458,-403,-328,-412,-307,-221
-256,-344,-349,-354,-358,-242,-353,-397,-448,-403,-333,-416,-305,-216
-254,-351,-343,-362,-362,-251,-357,-397,-442,-403,-350,-410,-306,-221
-257,-352,-327,-371,-381,-250,-340,-397,-437,-403,-364,-401,-306,-227
-256,-342,-333,-370,-383,-232,-341,-397,-436,-404,-366,-410,-304,-232
-253,-339,-347,-357,-370,-223,-370,-397,-445,-402,-364,-414,-305,-235
-258,-330,-361,-331,-384,-221,-401,-397,-442,-403,-359,-400,-308,-235
-256,-312,-385,-321,-396,-208,-418,-397,-430,-404,-358,-393,-306,-232
-255,-308,-386,-328,-374,-203,-415,-397,-424,-396,-371,-396,-304,-229
-257,-356,-297,-296,-301,-450,-312,-397,-419,-411,-315,-396,-307,-239
-259,-353,-307,-282,-309,-443,-320,-397,-400,-410,-328,-395,-307,-235
-256,-357,-317,-289,-318,-441,-324,-397,-382,-408,-323,-396,-307,-236
-255,-363,-321,-297,-297,-445,-324,-397,-393,-407,-323,-409,-306,-236
-257,-364,-318,-292,-290,-447,-321,-397,-416,-409,-323,-415,-306,-235
-252,-366,-318,-287,-306,-444,-321,-397,-411,-411,-335,-410,-307,-237
-245,-373,-306,-290,-307,-438,-318,-397,-397,-411,-350,-406,-306,-236
-245,-371,-299,-293,-307,-445,-322,-397,-407,-406,-336,-398,-304,-237
-250,-358,-317,-295,-322,-444,-340,-397,-403,-403,-317,-391,-303,-236
-236,484,-416,-367,-484,-493,-445,-367,-558,-436,-451,-413,-307,-240
-236,432,-434,-382,-461,-463,-446,-367,-535,-441,-439,-418,-307,-238
-230,354,-421,-348,-455,-473,-448,-370,-536,-440,-420,-417,-304,-236
-230,292,-408,-319,-458,-482,-444,-369,-535,-438,-408,-416,-304,-237
-237,250,-417,-326,-436,-473,-449,-373,-516,-438,-397,-419,-306,-238
-238,208,-408,-303,-434,-469,-446,-380,-524,-435,-400,-405,-304,-237
-230,168,-384,-251,-457,-471,-420,-374,-550,-432,-437,-396,-302,-236
-227,134,-376,-228,-460,-483,-409,-371,-560,-432,-459,-403,-303,-238
-231,84,-371,-209,-456,-462,-409,-383,-575,-434,-457,-404,-304,-238
-250,-501,-312,-347,47,-445,-344,-397,-424,-429,-425,-393,-309,-248
-246,-511,-295,-370,70,-444,-330,-397,-425,-439,-426,-393,-309,-249
-253,-510,-279,-367,38,-446,-341,-397,-407,-430,-420,-395,-309,-249
-262,-504,-278,-362,27,-448,-355,-397,-404,-416,-420,-392,-309,-247
-254,-514,-284,-379,49,-446,-327,-397,-417,-409,-426,-383,-309,-246
-248,-516,-288,-382,39,-452,-318,-397,-410,-412,-419,-381,-309,-246
-260,-501,-307,-351,23,-446,-367,-397,-395,-425,-408,-393,-309,-248
-262,-499,-334,-346,57,-438,-380,-397,-393,-432,-413,-395,-309,-248
-256,-502,-327,-364,95,-442,-349,-397,-397,-431,-433,-384,-309,-246
-256,-126,-412,-413,22,-406,-517,-397,-398,-442,-390,-409,-309,-244
-258,-117,-401,-419,19,-416,-510,-397,-395,-441,-399,-414,-305,-251
-259,-158,-423,-441,29,-408,-484,-397,-376,-441,-386,-417,-309,-250
-258,-160,-436,-459,29,-412,-462,-397,-371,-442,-384,-415,-315,-245
-260,-124,-401,-478,18,-436,-431,-397,-391,-445,-402,-416,-312,-231
-260,-146,-353,-504,26,-457,-377,-397,-408,-442,-409,-416,-311,-213
-258,-199,-327,-523,56,-473,-344,-397,-416,-446,-409,-414,-313,-214
-260,-196,-314,-515,55,-485,-344,-397,-440,-459,-422,-413,-309,-216
-259,-167,-307,-498,34,-485,-336,-397,-470,-456,-443,-413,-305,-206
-260,-534,-382,294,-452,-377,-236,-400,-433,-471,-371,-418,-317,-238
-260,-520,-380,283,-453,-384,-265,-400,-421,-475,-359,-415,-317,-235
-261,-498,-383,231,-454,-364,-300,-399,-398,-476,-344,-415,-317,-238
-262,-506,-398,179,-434,-341,-258,-399,-376,-475,-338,-416,-317,-246
-261,-525,-381,170,-419,-347,-218,-399,-368,-474,-354,-416,-317,-247
-261,-517,-340,160,-429,-354,-267,-399,-367,-474,-351,-416,-317,-246
-264,-514,-348,137,-433,-346,-285,-399,-364,-483,-328,-416,-317,-248
-262,-533,-372,138,-426,-324,-226,-399,-373,-496,-338,-416,-317,-248
-260,-545,-353,146,-428,-311,-204,-399,-386,-501,-363,-416,-317,-247
-263,-542,-329,122,-421,-317,-228,-399,-386,-496,-354,-416,-317,-247
-262,-603,-231,-81,-457,-183,-290,-399,-369,-473,-331,-381,-319,-234
-261,-600,-264,-96,-430,-199,-236,-399,-377,-472,-328,-384,-317,-235
-261,-600,-231,-104,-415,-205,-279,-399,-389,-466,-306,-387,-317,-236
-262,-607,-191,-104,-423,-217,-278,-399,-406,-463,-287,-385,-317,-237
-259,-605,-195,-113,-429,-222,-209,-399,-421,-465,-300,-384,-317,-237
-257,-583,-184,-118,-435,-202,-228,-399,-418,-463,-327,-388,-317,-237
-261,-564,-175,-109,-449,-181,-272,-399,-400,-462,-337,-391,-317,-237
-263,-572,-200,-96,-472,-167,-260,-399,-379,-462,-332,-386,-317,-237
-244,-547,-316,-192,-780,28,-372,-400,-122,-431,-335,-378,-309,-249
-249,-518,-316,-178,-792,21,-373,-400,-124,-431,-361,-385,-312,-247
-245,-511,-321,-178,-789,6,-351,-400,-125,-432,-366,-377,-312,-245
-237,-524,-321,-185,-793,0,-364,-400,-107,-430,-339,-365,-308,-247
-239,-521,-319,-186,-794,7,-394,-400,-97,-431,-333,-370,-310,-248
-244,-512,-326,-178,-785,1,-383,-400,-106,-433,-349,-372,-309,-247
-243,-511,-332,-183,-805,-15,-357,-400,-97,-426,-341,-360,-306,-247
-234,-528,-326,-206,-817,-29,-340,-400,-81,-420,-325,-354,-306,-247
-233,-541,-304,-216,-803,-37,-345,-400,-90,-414,-328,-352,-308,-247
-249,-238,-427,-330,-548,-121,-402,-397,-248,-411,-348,-412,-319,-220
-252,-256,-400,-336,-522,-124,-424,-397,-265,-424,-326,-397,-319,-215
-255,-304,-392,-336,-482,-134,-412,-397,-280,-434,-337,-389,-312,-216
-250,-303,-411,-329,-473,-155,-359,-397,-301,-432,-360,-396,-310,-216
-241,-275,-411,-322,-492,-159,-335,-397,-333,-435,-365,-394,-311,-208
-245,-279,-389,-318,-497,-134,-378,-397,-332,-438,-356,-385,-311,-211
-254,-294,-395,-325,-489,-114,-401,-397,-308,-421,-360,-384,-311,-218
-249,-300,-424,-331,-491,-119,-365,-396,-306,-417,-366,-387,-311,-214
-239,-305,-408,-324,-504,-137,-360,-397,-314,-439,-355,-387,-311,-213
-249,-485,-348,-324,-231,-311,-325,-414,-396,-434,-328,-381,-316,-217
-252,-483,-348,-342,-231,-314,-317,-414,-405,-423,-323,-380,-318,-214
-245,-465,-354,-353,-219,-311,-320,-414,-395,-407,-325,-382,-317,-212
-245,-467,-366,-341,-196,-291,-321,-414,-392,-413,-333,-393,-317,-213
-251,-485,-372,-332,-200,-284,-319,-414,-389,-422,-315,-396,-318,-215
-248,-480,-368,-330,-203,-304,-316,-414,-389,-431,-304,-385,-317,-214
-244,-470,-355,-315,-198,-308,-323,-414,-404,-434,-320,-381,-317,-215
-255,-467,-353,-321,-214,-295,-323,-414,-408,-430,-324,-383,-317,-218
-258,-465,-358,-335,-236,-291,-303,-414,-400,-430,-310,-383,-317,-217
-239,-443,-304,-337,-309,-289,-288,-412,-416,-431,-342,-381,-313,-213
-232,-450,-297,-314,-291,-293,-299,-416,-428,-431,-362,-382,-315,-213
-231,-413,-320,-323,-280,-296,-287,-419,-418,-431,-371,-383,-316,-213
-237,-412,-331,-331,-306,-289,-280,-420,-397,-429,-359,-383,-317,-212
-231,-447,-321,-328,-317,-287,-280,-416,-396,-430,-357,-382,-318,-215
-229,-441,-325,-350,-300,-291,-264,-412,-408,-431,-355,-383,-317,-217
-238,-422,-331,-362,-309,-290,-259,-413,-407,-428,-343,-385,-315,-216
-246,-431,-334,-316,-326,-277,-287,-420,-398,-430,-358,-384,-315,-216
-240,-421,-350,-280,-308,-257,-322,-418,-403,-433,-384,-383,-315,-217
-236,-399,-366,-292,-304,-249,-326,-410,-403,-422,-371,-383,-314,-217
-256,-270,-388,-242,-452,-77,-405,-415,-362,-441,-483,-381,-332,-232
-256,-288,-393,-237,-457,-79,-418,-414,-357,-424,-471,-378,-334,-223
-256,-316,-381,-243,-471,-64,-410,-413,-354,-411,-480,-376,-315,-216
-251,-292,-364,-240,-475,-76,-412,-414,-369,-428,-490,-367,-311,-219
-251,-282,-375,-223,-467,-100,-417,-414,-371,-424,-487,-364,-320,-218
-245,-314,-397,-196,-470,-89,-404,-414,-367,-410,-484,-375,-317,-215
-243,-312,-394,-213,-470,-83,-405,-414,-368,-410,-486,-372,-313,-216
-245,-276,-380,-235,-455,-101,-438,-414,-366,-410,-488,-364,-315,-215
-248,-278,-383,-204,-454,-105,-445,-414,-364,-414,-488,-376,-317,-216
-229,-315,-400,-55,-391,-285,-410,-414,-386,-472,-433,-396,-312,-225
-230,-316,-391,-77,-388,-290,-401,-415,-368,-470,-430,-384,-316,-226
-235,-299,-410,-62,-388,-285,-429,-413,-366,-473,-430,-383,-321,-228
-237,-286,-435,-35,-396,-285,-447,-412,-352,-473,-422,-397,-319,-224
-232,-302,-435,-44,-396,-277,-445,-414,-323,-470,-402,-397,-314,-217
-235,-318,-432,-74,-362,-280,-458,-414,-307,-470,-385,-389,-316,-217
-242,-323,-452,-82,-331,-284,-468,-414,-290,-474,-377,-405,-318,-226
-238,-313,-473,-86,-351,-257,-483,-414,-277,-476,-351,-418,-314,-230
-239,-291,-485,-100,-366,-244,-504,-413,-280,-473,-325,-408,-314,-228
-243,-300,-354,-86,-379,-250,-403,-412,-399,-473,-388,-389,-319,-242
-248,-309,-381,-109,-353,-256,-370,-412,-394,-465,-384,-389,-315,-242
-253,-324,-388,-107,-340,-263,-352,-416,-407,-463,-397,-393,-316,-242
-250,-308,-369,-82,-369,-236,-387,-417,-415,-468,-409,-395,-316,-242
-252,-299,-357,-94,-371,-249,-391,-414,-419,-465,-401,-393,-311,-242
-256,-324,-358,-116,-349,-289,-358,-412,-418,-462,-374,-392,-320,-242
-245,-336,-350,-110,-375,-238,-356,-412,-395,-464,-404,-384,-336,-242
-248,-281,-371,-86,-382,-231,-384,-414,-419,-462,-429,-388,-328,-242
-245,-266,-390,-78,-394,-216,-387,-415,-417,-465,-423,-387,-334,-242
-241,-247,-270,-194,-335,-103,-347,-419,-558,-469,-576,-386,-315,-248
-241,-277,-259,-194,-337,-86,-341,-419,-575,-468,-582,-380,-317,-249
-239,-289,-237,-186,-341,-64,-353,-418,-572,-467,-579,-375,-317,-247
-244,-255,-233,-158,-349,-78,-377,-418,-564,-468,-587,-379,-316,-250
-253,-231,-244,-135,-350,-95,-375,-418,-576,-470,-599,-379,-318,-259
-246,-241,-263,-140,-340,-90,-347,-418,-586,-471,-594,-372,-319,-257
-241,-254,-271,-170,-326,-86,-342,-418,-567,-466,-588,-367,-317,-247
-258,-263,-276,-198,-320,-90,-358,-418,-547,-462,-575,-364,-318,-248
-265,-259,-282,-209,-318,-97,-360,-418,-546,-464,-553,-367,-317,-249
-245,-377,-347,-422,-40,-365,-476,-428,-335,-444,-347,-386,-331,-246
-235,-353,-338,-428,-44,-406,-471,-428,-327,-443,-359,-385,-331,-252
-238,-346,-313,-418,-40,-428,-472,-428,-329,-445,-361,-385,-329,-251
-244,-378,-315,-413,-29,-388,-457,-428,-336,-444,-361,-386,-333,-248
-237,-400,-318,-414,-34,-388,-447,-428,-334,-440,-352,-385,-337,-250
-239,-364,-309,-417,-52,-408,-455,-428,-320,-450,-352,-385,-334,-256
-245,-338,-323,-421,-47,-393,-452,-428,-306,-454,-373,-385,-333,-258
-240,-365,-331,-415,-31,-398,-430,-428,-323,-448,-396,-385,-332,-256
-239,-369,-316,-395,-41,-421,-423,-428,-351,-449,-398,-385,-331,-250
-243,-344,-289,-367,-141,-420,-365,-421,-402,-454,-349,-383,-338,-253
-233,-349,-296,-351,-159,-414,-354,-420,-402,-448,-357,-383,-335,-256
-233,-341,-320,-326,-165,-406,-374,-426,-400,-459,-391,-383,-334,-259
-235,-336,-344,-326,-165,-387,-390,-431,-397,-468,-394,-383,-333,-259
-231,-345,-338,-329,-168,-380,-397,-429,-397,-454,-375,-383,-323,-252
-234,-342,-323,-326,-168,-388,-407,-428,-401,-446,-376,-383,-318,-247
-233,-332,-335,-315,-173,-379,-416,-429,-407,-448,-382,-383,-323,-249
-227,-335,-354,-311,-173,-376,-428,-429,-403,-444,-372,-383,-329,-247
-226,-336,-353,-330,-167,-387,-435,-428,-387,-438,-366,-383,-326,-244
-229,-320,-331,-283,-201,-376,-381,-422,-421,-444,-448,-383,-334,-257
-230,-312,-327,-290,-201,-409,-387,-420,-417,-441,-411,-385,-335,-254
-231,-330,-332,-311,-204,-403,-386,-421,-418,-440,-372,-389,-332,-250
-230,-310,-333,-328,-206,-390,-387,-423,-415,-442,-395,-393,-331,-253
-227,-287,-330,-322,-203,-398,-382,-424,-416,-443,-430,-395,-331,-256
-227,-327,-327,-299,-197,-383,-379,-427,-416,-441,-422,-394,-333,-257
-229,-355,-321,-296,-195,-377,-386,-430,-398,-441,-407,-394,-336,-259
-228,-321,-322,-307,-212,-387,-379,-428,-394,-442,-418,-395,-335,-256
-230,-301,-328,-301,-223,-363,-379,-421,-407,-442,-426,-393,-333,-254
-230,-355,-327,-361,-252,-380,-380,-419,-447,-439,-334,-393,-311,-244
-226,-369,-336,-338,-263,-386,-387,-419,-453,-449,-304,-390,-319,-247
-226,-357,-343,-314,-251,-384,-382,-419,-463,-462,-298,-395,-321,-247
-229,-334,-332,-328,-257,-381,-377,-419,-457,-454,-318,-407,-316,-246
-227,-342,-307,-335,-260,-387,-377,-420,-450,-451,-335,-414,-311,-248
-226,-362,-298,-323,-238,-402,-382,-418,-449,-454,-328,-407,-319,-249
-226,-357,-325,-327,-229,-400,-382,-420,-446,-454,-312,-402,-332,-245
-230,-349,-353,-328,-230,-381,-379,-430,-439,-461,-297,-407,-326,-251
-241,-367,-334,-311,-209,-378,-382,-431,-442,-474,-290,-409,-313,-265
-1828,618,562,1030,1122,1054,860,-448,826,-1090,1090,-430,-991,-864
-1042,34,22,382,463,410,204,-462,188,-912,408,-560,-633,-580
-361,-374,-335,-206,-123,-177,-304,-445,-357,-608,-237,-504,-372,-331
-394,-299,-279,-177,-121,-163,-248,-432,-319,-548,-251,-427,-400,-332
-352,-328,-304,-216,-169,-206,-303,-432,-355,-532,-288,-437,-371,-298
-211,-418,-379,-345,-272,-331,-439,-431,-483,-467,-402,-431,-311,-245
-238,-399,-370,-301,-238,-289,-411,-432,-457,-456,-357,-414,-329,-265
-257,-378,-352,-274,-235,-258,-386,-431,-421,-463,-345,-413,-335,-270
-281,-349,-294,-263,-239,-270,-353,-430,-409,-466,-379,-409,-335,-275
-298,-348,-278,-247,-236,-281,-316,-431,-417,-469,-381,-411,-339,-279
-211,-494,-331,-232,-424,-215,-437,-428,-424,-372,-428,-390,-316,-267
-210,-485,-333,-214,-432,-201,-450,-428,-437,-378,-443,-399,-315,-262
-215,-480,-358,-218,-403,-196,-441,-428,-433,-378,-436,-417,-311,-261
-228,-489,-347,-227,-379,-215,-420,-428,-438,-377,-426,-414,-315,-267
-228,-514,-324,-233,-365,-227,-407,-428,-440,-389,-426,-403,-333,-266
-223,-512,-328,-240,-346,-204,-397,-428,-427,-402,-428,-411,-343,-266
-243,-481,-336,-238,-334,-191,-387,-428,-404,-400,-408,-420,-337,-274
-264,-465,-341,-224,-337,-186,-385,-428,-375,-396,-385,-415,-337,-278
-276,-454,-345,-209,-330,-159,-387,-428,-345,-411,-391,-414,-345,-283
-187,-545,-436,-220,-459,-224,-450,-441,-326,-379,-397,-414,-310,-257
-160,-572,-427,-243,-479,-255,-489,-426,-355,-381,-426,-417,-305,-245
-151,-583,-388,-241,-498,-274,-502,-429,-375,-371,-439,-417,-310,-237
-178,-571,-345,-209,-485,-249,-457,-436,-353,-378,-424,-409,-311,-250
-200,-565,-348,-175,-469,-224,-431,-427,-337,-398,-420,-408,-311,-252
-209,-570,-359,-150,-470,-226,-429,-430,-337,-404,-422,-416,-322,-245
-223,-569,-347,-126,-463,-224,-396,-448,-316,-404,-401,-414,-338,-262
-238,-566,-345,-94,-457,-215,-374,-445,-286,-409,-388,-412,-343,-280
-252,-563,-338,-76,-459,-221,-381,-430,-271,-411,-392,-417,-337,-280
-227,-826,-415,-299,-282,-258,-441,-460,108,-411,-394,-419,-335,-276
-229,-833,-434,-286,-269,-260,-419,-460,115,-411,-390,-413,-334,-276
-230,-835,-428,-300,-257,-255,-436,-460,120,-412,-388,-416,-337,-276
-229,-833,-412,-300,-255,-261,-446,-460,105,-411,-382,-416,-339,-276
-228,-836,-431,-276,-255,-260,-436,-460,105,-409,-387,-415,-338,-276
-228,-836,-446,-281,-260,-248,-445,-460,120,-410,-396,-416,-338,-276
-230,-837,-422,-303,-265,-248,-450,-460,116,-409,-382,-422,-337,-276
-232,-836,-412,-302,-257,-257,-441,-460,116,-409,-368,-427,-336,-276
-230,-827,-438,-288,-258,-252,-451,-460,126,-412,-373,-422,-338,-276
-229,-834,-428,-290,-264,-254,-442,-460,115,-413,-383,-415,-339,-276
-226,-735,-381,-571,-141,-217,-380,-460,-120,-414,-242,-414,-337,-269
-226,-727,-375,-567,-136,-224,-375,-460,-121,-412,-263,-406,-339,-269
-227,-725,-356,-594,-142,-233,-371,-460,-124,-412,-281,-399,-338,-268
-227,-731,-348,-600,-139,-235,-370,-460,-122,-415,-261,-403,-336,-272
-227,-736,-352,-586,-119,-229,-359,-460,-118,-415,-245,-411,-338,-279
-229,-737,-351,-594,-104,-234,-361,-460,-127,-410,-236,-412,-341,-280
-230,-736,-362,-620,-103,-239,-380,-460,-116,-410,-227,-415,-340,-278
-229,-721,-390,-623,-105,-226,-388,-460,-92,-414,-230,-414,-340,-278
